XLabel,Wavenumber
YLabel,Absorbance
FileType,Absorbance
DisplayDirection,20300
PeakDirection,20312
898.826141,0.001044
900.754953,-0.000664
902.683764,-0.001428
904.612576,-0.000308
906.541387,0.001322
908.470199,0.001525
910.399010,0.000067
912.327822,-0.001029
914.256633,-0.000158
916.185445,0.000795
918.114256,0.000494
920.043068,0.000214
921.971879,0.000262
923.900690,-0.000265
925.829502,-0.000305
927.758313,0.000220
929.687125,0.000392
931.615936,0.000506
933.544748,0.000186
935.473559,-0.000652
937.402371,-0.000472
939.331182,0.000314
941.259994,0.000644
943.188805,0.000587
945.117617,0.000619
947.046428,0.000999
948.975240,0.000726
950.904051,-0.000057
952.832862,0.000114
954.761674,0.000586
956.690485,0.000426
958.619297,0.000090
960.548108,0.000122
962.476920,0.000198
964.405731,0.000256
966.334543,0.000453
968.263354,0.000318
970.192166,0.000029
972.120977,0.000005
974.049789,-0.000059
975.978600,-0.000074
977.907411,0.000059
979.836223,-0.000011
981.765034,-0.000157
983.693846,-0.000288
985.622657,-0.000461
987.551469,-0.000370
989.480280,-0.000130
991.409092,-0.000097
993.337903,-0.000121
995.266715,-0.000062
997.195526,-0.000112
999.124338,-0.000315
1001.053149,-0.000420
1002.981960,-0.000352
1004.910772,-0.000268
1006.839583,-0.000230
1008.768395,-0.000206
1010.697206,-0.000158
1012.626018,-0.000144
1014.554829,-0.000152
1016.483641,-0.000136
1018.412452,-0.000119
1020.341264,-0.000007
1022.270075,-0.000014
1024.198887,-0.000169
1026.127698,-0.000033
1028.056509,0.000045
1029.985321,-0.000157
1031.914132,-0.000158
1033.842944,-0.000079
1035.771755,-0.000090
1037.700567,-0.000055
1039.629378,-0.000116
1041.558190,-0.000174
1043.487001,-0.000133
1045.415813,-0.000053
1047.344624,-0.000028
1049.273436,-0.000117
1051.202247,-0.000184
1053.131058,-0.000142
1055.059870,-0.000053
1056.988681,-0.000011
1058.917493,-0.000010
1060.846304,-0.000035
1062.775116,-0.000096
1064.703927,-0.000098
1066.632739,-0.000073
1068.561550,-0.000080
1070.490362,-0.000046
1072.419173,-0.000061
1074.347985,-0.000183
1076.276796,-0.000245
1078.205607,-0.000225
1080.134419,-0.000198
1082.063230,-0.000114
1083.992042,0.000027
1085.920853,0.000085
1087.849665,-0.000015
1089.778476,-0.000076
1091.707288,0.000008
1093.636099,-0.000003
1095.564911,-0.000103
1097.493722,-0.000108
1099.422534,-0.000140
1101.351345,-0.000206
1103.280156,-0.000149
1105.208968,-0.000079
1107.137779,-0.000048
1109.066591,0.000058
1110.995402,0.000113
1112.924214,0.000060
1114.853025,0.000099
1116.781837,0.000101
1118.710648,-0.000059
1120.639460,-0.000100
1122.568271,-0.000053
1124.497083,-0.000096
1126.425894,-0.000094
1128.354706,-0.000022
1130.283517,0.000028
1132.212328,-0.000005
1134.141140,-0.000077
1136.069951,-0.000044
1137.998763,0.000034
1139.927574,-0.000001
1141.856386,-0.000100
1143.785197,-0.000146
1145.714009,-0.000152
1147.642820,-0.000033
1149.571632,0.000198
1151.500443,0.000207
1153.429255,0.000143
1155.358066,0.000208
1157.286877,0.000124
1159.215689,0.000072
1161.144500,0.000180
1163.073312,0.000186
1165.002123,0.000172
1166.930935,0.000200
1168.859746,0.000109
1170.788558,-0.000077
1172.717369,-0.000116
1174.646181,0.000007
1176.574992,0.000036
1178.503804,0.000000
1180.432615,0.000070
1182.361426,0.000204
1184.290238,0.000299
1186.219049,0.000282
1188.147861,0.000217
1190.076672,0.000253
1192.005484,0.000294
1193.934295,0.000140
1195.863107,-0.000047
1197.791918,-0.000033
1199.720730,0.000073
1201.649541,0.000116
1203.578353,0.000125
1205.507164,0.000162
1207.435975,0.000197
1209.364787,0.000240
1211.293598,0.000327
1213.222410,0.000291
1215.151221,0.000187
1217.080033,0.000253
1219.008844,0.000338
1220.937656,0.000428
1222.866467,0.000607
1224.795279,0.000685
1226.724090,0.000732
1228.652902,0.000889
1230.581713,0.001075
1232.510524,0.001313
1234.439336,0.001589
1236.368147,0.001842
1238.296959,0.002161
1240.225770,0.002559
1242.154582,0.003009
1244.083393,0.003575
1246.012205,0.004226
1247.941016,0.004896
1249.869828,0.005586
1251.798639,0.006060
1253.727451,0.005891
1255.656262,0.005422
1257.585073,0.005264
1259.513885,0.005356
1261.442696,0.006106
1263.371508,0.006953
1265.300319,0.006461
1267.229131,0.005796
1269.157942,0.006056
1271.086754,0.006268
1273.015565,0.006072
1274.944377,0.005548
1276.873188,0.004758
1278.802000,0.004021
1280.730811,0.003447
1282.659622,0.003022
1284.588434,0.002605
1286.517245,0.002150
1288.446057,0.001786
1290.374868,0.001544
1292.303680,0.001375
1294.232491,0.001174
1296.161303,0.000931
1298.090114,0.000815
1300.018926,0.000725
1301.947737,0.000446
1303.876549,0.000255
1305.805360,0.000250
1307.734172,0.000153
1309.662983,-0.000123
1311.591794,-0.000370
1313.520606,-0.000522
1315.449417,-0.000432
1317.378229,-0.000278
1319.307040,-0.000187
1321.235852,-0.000082
1323.164663,-0.000214
1325.093475,-0.000422
1327.022286,-0.000037
1328.951098,0.000485
1330.879909,0.000547
1332.808721,0.000432
1334.737532,0.000159
1336.666343,-0.000214
1338.595155,-0.000389
1340.523966,-0.000447
1342.452778,-0.000400
1344.381589,-0.000162
1346.310401,-0.000074
1348.239212,-0.000190
1350.168024,-0.000053
1352.096835,0.000112
1354.025647,0.000210
1355.954458,0.000367
1357.883270,0.000632
1359.812081,0.000635
1361.740892,0.000340
1363.669704,0.000372
1365.598515,0.000622
1367.527327,0.000640
1369.456138,0.000774
1371.384950,0.000847
1373.313761,0.000665
1375.242573,0.000781
1377.171384,0.001074
1379.100196,0.001179
1381.029007,0.001325
1382.957819,0.001447
1384.886630,0.001194
1386.815441,0.000876
1388.744253,0.001163
1390.673064,0.001603
1392.601876,0.001395
1394.530687,0.001113
1396.459499,0.001224
1398.388310,0.001331
1400.317122,0.001732
1402.245933,0.002012
1404.174745,0.001869
1406.103556,0.002058
1408.032368,0.002370
1409.961179,0.002438
1411.889990,0.002377
1413.818802,0.002354
1415.747613,0.002185
1417.676425,0.001423
1419.605236,0.001222
1421.534048,0.001964
1423.462859,0.002292
1425.391671,0.002390
1427.320482,0.002367
1429.249294,0.002160
1431.178105,0.002470
1433.106917,0.002638
1435.035728,0.001839
1436.964539,0.001463
1438.893351,0.002274
1440.822162,0.002758
1442.750974,0.002668
1444.679785,0.002424
1446.608597,0.002245
1448.537408,0.002349
1450.466220,0.002508
1452.395031,0.002463
1454.323843,0.001635
1456.252654,0.000232
1458.181466,0.000567
1460.110277,0.002031
1462.039089,0.002438
1463.967900,0.002006
1465.896711,0.001920
1467.825523,0.002270
1469.754334,0.001761
1471.683146,0.000656
1473.611957,0.000671
1475.540769,0.001397
1477.469580,0.001942
1479.398392,0.002185
1481.327203,0.002130
1483.256015,0.002021
1485.184826,0.001705
1487.113638,0.001109
1489.042449,0.000664
1490.971260,0.001067
1492.900072,0.001693
1494.828883,0.001260
1496.757695,0.000698
1498.686506,0.001108
1500.615318,0.001598
1502.544129,0.001621
1504.472941,0.000388
1506.401752,-0.001176
1508.330564,-0.000129
1510.259375,0.001234
1512.188187,0.001610
1514.116998,0.001470
1516.045809,0.001008
1517.974621,0.000799
1519.903432,0.000399
1521.832244,0.000165
1523.761055,0.000905
1525.689867,0.001390
1527.618678,0.001776
1529.547490,0.002293
1531.476301,0.001975
1533.405113,0.001446
1535.333924,0.001800
1537.262736,0.001348
1539.191547,-0.000359
1541.120358,-0.000302
1543.049170,0.000996
1544.977981,0.002079
1546.906793,0.002959
1548.835604,0.003205
1550.764416,0.003259
1552.693227,0.003282
1554.622039,0.003284
1556.550850,0.002709
1558.479662,0.001986
1560.408473,0.004846
1562.337285,0.008308
1564.266096,0.010283
1566.194907,0.012236
1568.123719,0.014327
1570.052530,0.017720
1571.981342,0.022692
1573.910153,0.027207
1575.838965,0.033020
1577.767776,0.041724
1579.696588,0.051242
1581.625399,0.061538
1583.554211,0.072783
1585.483022,0.085468
1587.411834,0.099324
1589.340645,0.113531
1591.269456,0.128087
1593.198268,0.141727
1595.127079,0.152890
1597.055891,0.160688
1598.984702,0.165317
1600.913514,0.166147
1602.842325,0.163177
1604.771137,0.157620
1606.699948,0.149088
1608.628760,0.138413
1610.557571,0.125211
1612.486383,0.111401
1614.415194,0.096350
1616.344005,0.081186
1618.272817,0.092473
1620.201628,0.129999
1622.130440,0.169533
1624.059251,0.199140
1625.988063,0.216018
1627.916874,0.223117
1629.845686,0.220162
1631.774497,0.206802
1633.703309,0.185861
1635.632120,0.156854
1637.560932,0.128853
1639.489743,0.105874
1641.418555,0.082301
1643.347366,0.061340
1645.276177,0.043850
1647.204989,0.028426
1649.133800,0.019011
1651.062612,0.012318
1652.991423,0.006107
1654.920235,0.005174
1656.849046,0.005987
1658.777858,0.005603
1660.706669,0.004815
1662.635481,0.004211
1664.564292,0.004362
1666.493104,0.004330
1668.421915,0.003273
1670.350726,0.003070
1672.279538,0.003622
1674.208349,0.003382
1676.137161,0.003413
1678.065972,0.004047
1679.994784,0.003953
1681.923595,0.002749
1683.852407,0.001608
1685.781218,0.002411
1687.710030,0.003179
1689.638841,0.002752
1691.567653,0.002429
1693.496464,0.001420
1695.425275,0.000304
1697.354087,0.001153
1699.282898,0.000856
1701.211710,-0.000198
1703.140521,0.000390
1705.069333,0.000938
1706.998144,0.001871
1708.926956,0.002894
1710.855767,0.002870
1712.784579,0.002465
1714.713390,0.001778
1716.642202,0.000848
1718.571013,0.001028
1720.499824,0.001882
1722.428636,0.002090
1724.357447,0.002083
1726.286259,0.002232
1728.215070,0.002188
1730.143882,0.002193
1732.072693,0.001765
1734.001505,0.001497
1735.930316,0.002901
1737.859128,0.003840
1739.787939,0.003922
1741.716751,0.004394
1743.645562,0.004757
1745.574373,0.004538
1747.503185,0.004029
1749.431996,0.003564
1751.360808,0.003782
1753.289619,0.004451
1755.218431,0.004497
1757.147242,0.004247
1759.076054,0.004052
1761.004865,0.003286
1762.933677,0.002661
1764.862488,0.002400
1766.791300,0.001733
1768.720111,0.001030
1770.648922,0.000209
1772.577734,-0.000355
1774.506545,0.000099
1776.435357,0.000567
1778.364168,0.000624
1780.292980,0.000703
1782.221791,0.000898
1784.150603,0.000961
1786.079414,0.001113
1788.008226,0.001360
1789.937037,0.000925
1791.865849,0.000221
1793.794660,0.000356
1795.723471,0.000709
1797.652283,0.000655
1799.581094,0.000439
1801.509906,0.000499
1803.438717,0.000992
1805.367529,0.001426
1807.296340,0.001478
1809.225152,0.001336
1811.153963,0.001362
1813.082775,0.001602
1815.011586,0.001721
1816.940398,0.001685
1818.869209,0.001674
1820.798021,0.001763
1822.726832,0.001720
1824.655643,0.001580
1826.584455,0.001673
1828.513266,0.001638
1830.442078,0.001703
1832.370889,0.002251
1834.299701,0.002596
1836.228512,0.002698
1838.157324,0.002888
1840.086135,0.003002
1842.014947,0.002789
1843.943758,0.002516
1845.872570,0.002792
1847.801381,0.003170
1849.730192,0.003234
1851.659004,0.003173
1853.587815,0.003107
1855.516627,0.003043
1857.445438,0.002809
1859.374250,0.002576
1861.303061,0.002375
1863.231873,0.001945
1865.160684,0.001334
1867.089496,0.000587
1869.018307,0.000099
1870.947119,0.000001
1872.875930,0.000697
1874.804741,0.001934
1876.733553,0.001571
1878.662364,0.000241
1880.591176,0.000245
1882.519987,0.000909
1884.448799,0.001465
1886.377610,0.002090
1888.306422,0.002612
1890.235233,0.003093
1892.164045,0.003539
1894.092856,0.003895
1896.021668,0.004175
1897.950479,0.004428
1899.879290,0.004665
1901.808102,0.004824
1903.736913,0.004922
1905.665725,0.004927
1907.594536,0.004828
1909.523348,0.004628
1911.452159,0.004360
1913.380971,0.004167
1915.309782,0.003819
1917.238594,0.003261
1919.167405,0.003032
1921.096217,0.002949
1923.025028,0.002668
1924.953839,0.002508
1926.882651,0.002373
1928.811462,0.002060
1930.740274,0.001726
1932.669085,0.001462
1934.597897,0.001256
1936.526708,0.001061
1938.455520,0.000898
1940.384331,0.000658
1942.313143,0.000404
1944.241954,0.000395
1946.170766,0.000441
1948.099577,0.000428
1950.028388,0.000428
1951.957200,0.000338
1953.886011,0.000288
1955.814823,0.000292
1957.743634,0.000221
1959.672446,0.000200
1961.601257,0.000245
1963.530069,0.000214
1965.458880,0.000125
1967.387692,0.000087
1969.316503,0.000130
1971.245315,0.000155
1973.174126,0.000123
1975.102938,0.000137
1977.031749,0.000220
1978.960560,0.000264
1980.889372,0.000234
1982.818183,0.000197
1984.746995,0.000214
1986.675806,0.000294
1988.604618,0.000298
1990.533429,0.000153
1992.462241,0.000065
1994.391052,0.000148
1996.319864,0.000204
1998.248675,0.000157
2000.177487,0.000173
2002.106298,0.000186
2004.035109,0.000141
2005.963921,0.000185
2007.892732,0.000202
2009.821544,0.000143
2011.750355,0.000158
2013.679167,0.000213
2015.607978,0.000193
2017.536790,0.000131
2019.465601,0.000117
2021.394413,0.000140
2023.323224,0.000204
2025.252036,0.000235
2027.180847,0.000152
2029.109658,0.000118
2031.038470,0.000133
2032.967281,0.000107
2034.896093,0.000109
2036.824904,0.000132
2038.753716,0.000128
2040.682527,0.000104
2042.611339,0.000116
2044.540150,0.000139
2046.468962,0.000088
2048.397773,0.000076
2050.326585,0.000128
2052.255396,0.000090
2054.184207,0.000026
2056.113019,0.000051
2058.041830,0.000117
2059.970642,0.000155
2061.899453,0.000088
2063.828265,-0.000035
2065.757076,-0.000081
2067.685888,-0.000021
2069.614699,0.000064
2071.543511,0.000049
2073.472322,0.000030
2075.401134,0.000088
2077.329945,0.000061
2079.258756,0.000007
2081.187568,-0.000008
2083.116379,-0.000054
2085.045191,-0.000027
2086.974002,0.000051
2088.902814,0.000057
2090.831625,0.000049
2092.760437,0.000061
2094.689248,0.000061
2096.618060,0.000060
2098.546871,0.000061
2100.475683,0.000039
2102.404494,0.000031
2104.333305,0.000066
2106.262117,0.000032
2108.190928,-0.000019
2110.119740,0.000054
2112.048551,0.000077
2113.977363,0.000038
2115.906174,0.000099
2117.834986,0.000147
2119.763797,0.000133
2121.692609,0.000081
2123.621420,0.000050
2125.550232,0.000100
2127.479043,0.000094
2129.407854,0.000014
2131.336666,-0.000076
2133.265477,-0.000112
2135.194289,-0.000087
2137.123100,-0.000155
2139.051912,-0.000165
2140.980723,-0.000033
2142.909535,-0.000025
2144.838346,-0.000122
2146.767158,-0.000191
2148.695969,-0.000185
2150.624781,-0.000087
2152.553592,-0.000040
2154.482404,-0.000054
2156.411215,-0.000019
2158.340026,0.000012
2160.268838,0.000010
2162.197649,0.000054
2164.126461,0.000098
2166.055272,0.000068
2167.984084,0.000070
2169.912895,0.000170
2171.841707,0.000235
2173.770518,0.000198
2175.699330,0.000198
2177.628141,0.000268
2179.556953,0.000269
2181.485764,0.000280
2183.414575,0.000379
2185.343387,0.000425
2187.272198,0.000433
2189.201010,0.000474
2191.129821,0.000550
2193.058633,0.000677
2194.987444,0.000786
2196.916256,0.000911
2198.845067,0.001084
2200.773879,0.001175
2202.702690,0.001290
2204.631502,0.001454
2206.560313,0.001443
2208.489124,0.001369
2210.417936,0.001381
2212.346747,0.001390
2214.275559,0.001343
2216.204370,0.001205
2218.133182,0.001048
2220.061993,0.000836
2221.990805,0.000514
2223.919616,0.000430
2225.848428,0.000694
2227.777239,0.001002
2229.706051,0.001267
2231.634862,0.001556
2233.563673,0.001881
2235.492485,0.002145
2237.421296,0.002194
2239.350108,0.002022
2241.278919,0.001763
2243.207731,0.001555
2245.136542,0.001321
2247.065354,0.000953
2248.994165,0.000649
2250.922977,0.000456
2252.851788,0.000176
2254.780600,-0.000030
2256.709411,0.000001
2258.638222,0.000004
2260.567034,-0.000107
2262.495845,-0.000112
2264.424657,-0.000098
2266.353468,-0.000179
2268.282280,-0.000125
2270.211091,-0.000022
2272.139903,-0.000099
2274.068714,-0.000151
2275.997526,-0.000114
2277.926337,-0.000098
2279.855149,-0.000021
2281.783960,0.000071
2283.712771,0.000032
2285.641583,-0.000116
2287.570394,-0.000220
2289.499206,-0.000232
2291.428017,-0.000274
2293.356829,-0.000322
2295.285640,-0.000350
2297.214452,-0.000453
2299.143263,-0.000566
2301.072075,-0.000352
2303.000886,-0.000108
2304.929698,0.000036
2306.858509,-0.000099
2308.787320,-0.000174
2310.716132,-0.000014
2312.644943,0.000002
2314.573755,-0.000092
2316.502566,-0.000142
2318.431378,-0.000268
2320.360189,-0.000415
2322.289001,-0.000599
2324.217812,-0.000823
2326.146624,-0.000834
2328.075435,-0.000682
2330.004247,-0.000679
2331.933058,-0.000658
2333.861870,-0.000543
2335.790681,-0.000507
2337.719492,-0.000495
2339.648304,-0.000336
2341.577115,0.000064
2343.505927,0.000695
2345.434738,0.001823
2347.363550,0.003309
2349.292361,0.003826
2351.221173,0.002905
2353.149984,0.001648
2355.078796,0.000793
2357.007607,0.000191
2358.936419,-0.000059
2360.865230,0.000199
2362.794041,-0.000020
2364.722853,-0.000199
2366.651664,-0.000313
2368.580476,-0.000249
2370.509287,0.000227
2372.438099,0.000923
2374.366910,0.001434
2376.295722,0.001889
2378.224533,0.002263
2380.153345,0.002278
2382.082156,0.002162
2384.010968,0.002108
2385.939779,0.001821
2387.868590,0.001247
2389.797402,0.000715
2391.726213,0.000290
2393.655025,-0.000183
2395.583836,-0.000146
2397.512648,-0.000118
2399.441459,-0.000200
2401.370271,-0.000203
2403.299082,-0.000102
2405.227894,-0.000100
2407.156705,-0.000182
2409.085517,-0.000239
2411.014328,-0.000244
2412.943139,-0.000196
2414.871951,-0.000058
2416.800762,0.000011
2418.729574,-0.000130
2420.658385,-0.000214
2422.587197,-0.000171
2424.516008,-0.000214
2426.444820,-0.000268
2428.373631,-0.000243
2430.302443,-0.000197
2432.231254,-0.000161
2434.160066,-0.000208
2436.088877,-0.000259
2438.017688,-0.000176
2439.946500,-0.000110
2441.875311,-0.000176
2443.804123,-0.000227
2445.732934,-0.000165
2447.661746,-0.000117
2449.590557,-0.000127
2451.519369,-0.000134
2453.448180,-0.000207
2455.376992,-0.000246
2457.305803,-0.000180
2459.234615,-0.000171
2461.163426,-0.000174
2463.092237,-0.000132
2465.021049,-0.000059
2466.949860,0.000023
2468.878672,-0.000003
2470.807483,-0.000086
2472.736295,-0.000110
2474.665106,-0.000086
2476.593918,-0.000076
2478.522729,-0.000105
2480.451541,-0.000096
2482.380352,-0.000060
2484.309164,-0.000054
2486.237975,-0.000060
2488.166786,-0.000097
2490.095598,-0.000080
2492.024409,-0.000058
2493.953221,-0.000203
2495.882032,-0.000289
2497.810844,-0.000210
2499.739655,-0.000124
2501.668467,-0.000044
2503.597278,-0.000080
2505.526090,-0.000181
2507.454901,-0.000186
2509.383713,-0.000194
2511.312524,-0.000216
2513.241336,-0.000199
2515.170147,-0.000191
2517.098958,-0.000156
2519.027770,-0.000081
2520.956581,-0.000079
2522.885393,-0.000137
2524.814204,-0.000161
2526.743016,-0.000147
2528.671827,-0.000128
2530.600639,-0.000150
2532.529450,-0.000147
2534.458262,-0.000117
2536.387073,-0.000167
2538.315885,-0.000204
2540.244696,-0.000176
2542.173507,-0.000149
2544.102319,-0.000173
2546.031130,-0.000224
2547.959942,-0.000182
2549.888753,-0.000153
2551.817565,-0.000221
2553.746376,-0.000215
2555.675188,-0.000097
2557.603999,0.000009
2559.532811,-0.000056
2561.461622,-0.000181
2563.390434,-0.000152
2565.319245,-0.000136
2567.248056,-0.000127
2569.176868,-0.000032
2571.105679,-0.000030
2573.034491,-0.000010
2574.963302,0.000040
2576.892114,-0.000067
2578.820925,-0.000137
2580.749737,-0.000114
2582.678548,-0.000091
2584.607360,-0.000051
2586.536171,-0.000052
2588.464983,-0.000035
2590.393794,-0.000019
2592.322605,-0.000073
2594.251417,-0.000080
2596.180228,-0.000080
2598.109040,-0.000029
2600.037851,0.000121
2601.966663,0.000062
2603.895474,-0.000166
2605.824286,-0.000200
2607.753097,-0.000079
2609.681909,-0.000064
2611.610720,-0.000142
2613.539532,-0.000080
2615.468343,0.000044
2617.397154,0.000053
2619.325966,0.000069
2621.254777,0.000070
2623.183589,0.000032
2625.112400,0.000022
2627.041212,-0.000062
2628.970023,-0.000102
2630.898835,0.000002
2632.827646,-0.000010
2634.756458,-0.000142
2636.685269,-0.000118
2638.614081,-0.000001
2640.542892,-0.000043
2642.471703,-0.000092
2644.400515,0.000037
2646.329326,0.000070
2648.258138,-0.000017
2650.186949,0.000037
2652.115761,0.000046
2654.044572,-0.000116
2655.973384,-0.000142
2657.902195,-0.000047
2659.831007,-0.000113
2661.759818,-0.000227
2663.688630,-0.000119
2665.617441,0.000058
2667.546253,0.000022
2669.475064,-0.000031
2671.403875,0.000056
2673.332687,0.000099
2675.261498,0.000040
2677.190310,-0.000111
2679.119121,-0.000184
2681.047933,-0.000086
2682.976744,-0.000008
2684.905556,0.000054
2686.834367,0.000054
2688.763179,-0.000017
2690.691990,0.000007
2692.620802,-0.000028
2694.549613,-0.000107
2696.478424,-0.000028
2698.407236,0.000024
2700.336047,0.000017
