XLabel,Wavenumber
YLabel,Absorbance
FileType,Absorbance
DisplayDirection,20300
PeakDirection,20312
898.826141,-0.000427
900.754953,-0.000815
902.683764,0.000001
904.612576,0.001694
906.541387,0.001338
908.470199,-0.000400
910.399010,-0.000739
912.327822,0.000209
914.256633,0.000417
916.185445,-0.000730
918.114256,-0.000955
920.043068,0.000061
921.971879,0.000754
923.900690,0.001365
925.829502,0.001328
927.758313,0.001002
929.687125,0.001352
931.615936,0.000979
933.544748,-0.000075
935.473559,-0.000256
937.402371,0.000166
939.331182,0.000264
941.259994,0.000534
943.188805,0.000899
945.117617,0.000420
947.046428,-0.000137
948.975240,-0.000110
950.904051,0.000215
952.832862,0.000544
954.761674,0.000450
956.690485,0.000218
958.619297,0.000162
960.548108,-0.000029
962.476920,-0.000266
964.405731,0.000053
966.334543,0.000623
968.263354,0.000449
970.192166,-0.000007
972.120977,-0.000018
974.049789,-0.000052
975.978600,-0.000194
977.907411,-0.000154
979.836223,0.000012
981.765034,0.000226
983.693846,0.000175
985.622657,-0.000071
987.551469,0.000023
989.480280,0.000081
991.409092,-0.000191
993.337903,-0.000273
995.266715,-0.000177
997.195526,-0.000026
999.124338,0.000167
1001.053149,0.000093
1002.981960,-0.000069
1004.910772,0.000032
1006.839583,0.000185
1008.768395,0.000098
1010.697206,-0.000041
1012.626018,-0.000047
1014.554829,-0.000122
1016.483641,-0.000157
1018.412452,-0.000046
1020.341264,-0.000039
1022.270075,-0.000211
1024.198887,-0.000447
1026.127698,-0.000375
1028.056509,-0.000020
1029.985321,0.000097
1031.914132,0.000023
1033.842944,-0.000070
1035.771755,-0.000117
1037.700567,0.000046
1039.629378,0.000085
1041.558190,-0.000097
1043.487001,-0.000113
1045.415813,-0.000079
1047.344624,-0.000066
1049.273436,-0.000017
1051.202247,-0.000062
1053.131058,0.000001
1055.059870,0.000062
1056.988681,-0.000116
1058.917493,-0.000185
1060.846304,-0.000060
1062.775116,0.000004
1064.703927,-0.000027
1066.632739,-0.000044
1068.561550,-0.000067
1070.490362,-0.000101
1072.419173,-0.000052
1074.347985,-0.000065
1076.276796,-0.000195
1078.205607,-0.000257
1080.134419,-0.000163
1082.063230,0.000025
1083.992042,0.000093
1085.920853,-0.000006
1087.849665,-0.000045
1089.778476,-0.000054
1091.707288,-0.000117
1093.636099,-0.000075
1095.564911,-0.000105
1097.493722,-0.000152
1099.422534,0.000039
1101.351345,-0.000004
1103.280156,-0.000200
1105.208968,-0.000177
1107.137779,-0.000219
1109.066591,-0.000199
1110.995402,-0.000052
1112.924214,0.000011
1114.853025,-0.000001
1116.781837,-0.000084
1118.710648,-0.000075
1120.639460,0.000011
1122.568271,0.000013
1124.497083,0.000004
1126.425894,-0.000005
1128.354706,-0.000028
1130.283517,-0.000115
1132.212328,-0.000207
1134.141140,-0.000146
1136.069951,-0.000108
1137.998763,-0.000167
1139.927574,-0.000194
1141.856386,-0.000235
1143.785197,-0.000226
1145.714009,-0.000141
1147.642820,-0.000042
1149.571632,0.000035
1151.500443,-0.000085
1153.429255,-0.000231
1155.358066,-0.000142
1157.286877,-0.000061
1159.215689,-0.000066
1161.144500,0.000003
1163.073312,0.000038
1165.002123,-0.000056
1166.930935,-0.000155
1168.859746,-0.000230
1170.788558,-0.000301
1172.717369,-0.000199
1174.646181,-0.000048
1176.574992,-0.000111
1178.503804,-0.000187
1180.432615,-0.000154
1182.361426,-0.000081
1184.290238,0.000025
1186.219049,0.000008
1188.147861,-0.000100
1190.076672,-0.000111
1192.005484,-0.000142
1193.934295,-0.000235
1195.863107,-0.000138
1197.791918,0.000042
1199.720730,0.000028
1201.649541,-0.000048
1203.578353,-0.000116
1205.507164,-0.000219
1207.435975,-0.000291
1209.364787,-0.000242
1211.293598,-0.000079
1213.222410,-0.000092
1215.151221,-0.000246
1217.080033,-0.000200
1219.008844,-0.000038
1220.937656,0.000002
1222.866467,-0.000035
1224.795279,-0.000019
1226.724090,-0.000063
1228.652902,-0.000055
1230.581713,0.000062
1232.510524,-0.000014
1234.439336,-0.000049
1236.368147,0.000066
1238.296959,0.000059
1240.225770,0.000030
1242.154582,0.000029
1244.083393,0.000105
1246.012205,0.000282
1247.941016,0.000383
1249.869828,0.000388
1251.798639,0.000306
1253.727451,0.000193
1255.656262,0.000206
1257.585073,0.000263
1259.513885,0.000231
1261.442696,0.000224
1263.371508,0.000297
1265.300319,0.000406
1267.229131,0.000473
1269.157942,0.000379
1271.086754,0.000254
1273.015565,0.000259
1274.944377,0.000291
1276.873188,0.000238
1278.802000,0.000157
1280.730811,0.000160
1282.659622,0.000161
1284.588434,0.000089
1286.517245,0.000061
1288.446057,0.000087
1290.374868,0.000120
1292.303680,0.000115
1294.232491,0.000043
1296.161303,0.000026
1298.090114,-0.000021
1300.018926,-0.000193
1301.947737,-0.000268
1303.876549,-0.000322
1305.805360,-0.000366
1307.734172,-0.000213
1309.662983,-0.000185
1311.591794,-0.000406
1313.520606,-0.000513
1315.449417,-0.000374
1317.378229,-0.000225
1319.307040,-0.000197
1321.235852,-0.000145
1323.164663,-0.000217
1325.093475,-0.000290
1327.022286,-0.000066
1328.951098,0.000090
1330.879909,0.000217
1332.808721,0.000373
1334.737532,0.000158
1336.666343,-0.000110
1338.595155,-0.000119
1340.523966,-0.000123
1342.452778,-0.000073
1344.381589,0.000186
1346.310401,0.000303
1348.239212,0.000042
1350.168024,-0.000112
1352.096835,0.000088
1354.025647,0.000250
1355.954458,0.000231
1357.883270,0.000202
1359.812081,0.000119
1361.740892,0.000073
1363.669704,0.000218
1365.598515,0.000134
1367.527327,-0.000139
1369.456138,-0.000072
1371.384950,0.000043
1373.313761,-0.000045
1375.242573,0.000072
1377.171384,0.000252
1379.100196,0.000137
1381.029007,0.000020
1382.957819,0.000075
1384.886630,0.000057
1386.815441,-0.000041
1388.744253,0.000013
1390.673064,0.000144
1392.601876,0.000014
1394.530687,-0.000110
1396.459499,0.000037
1398.388310,0.000072
1400.317122,0.000233
1402.245933,0.000477
1404.174745,0.000371
1406.103556,0.000320
1408.032368,0.000372
1409.961179,0.000382
1411.889990,0.000554
1413.818802,0.000640
1415.747613,0.000281
1417.676425,-0.000272
1419.605236,-0.000095
1421.534048,0.000426
1423.462859,0.000354
1425.391671,0.000330
1427.320482,0.000555
1429.249294,0.000602
1431.178105,0.000642
1433.106917,0.000456
1435.035728,-0.000142
1436.964539,-0.000297
1438.893351,0.000240
1440.822162,0.000539
1442.750974,0.000551
1444.679785,0.000477
1446.608597,0.000378
1448.537408,0.000381
1450.466220,0.000442
1452.395031,0.000569
1454.323843,0.000262
1456.252654,-0.000604
1458.181466,-0.000512
1460.110277,0.000293
1462.039089,0.000530
1463.967900,0.000351
1465.896711,0.000453
1467.825523,0.000834
1469.754334,0.000646
1471.683146,0.000095
1473.611957,0.000087
1475.540769,0.000268
1477.469580,0.000455
1479.398392,0.000739
1481.327203,0.000867
1483.256015,0.000850
1485.184826,0.000666
1487.113638,0.000350
1489.042449,0.000095
1490.971260,0.000251
1492.900072,0.000689
1494.828883,0.000595
1496.757695,0.000209
1498.686506,0.000376
1500.615318,0.000732
1502.544129,0.000808
1504.472941,0.000247
1506.401752,-0.000439
1508.330564,0.000001
1510.259375,0.000472
1512.188187,0.000652
1514.116998,0.000772
1516.045809,0.000630
1517.974621,0.000504
1519.903432,0.000339
1521.832244,0.000245
1523.761055,0.000597
1525.689867,0.000844
1527.618678,0.000994
1529.547490,0.001223
1531.476301,0.001002
1533.405113,0.000613
1535.333924,0.000851
1537.262736,0.000706
1539.191547,-0.000180
1541.120358,-0.000134
1543.049170,0.000539
1544.977981,0.001136
1546.906793,0.001579
1548.835604,0.001513
1550.764416,0.001416
1552.693227,0.001322
1554.622039,0.001154
1556.550850,0.000801
1558.479662,0.000055
1560.408473,0.000880
1562.337285,0.002287
1564.266096,0.002775
1566.194907,0.003072
1568.123719,0.003223
1570.052530,0.003512
1571.981342,0.004415
1573.910153,0.004988
1575.838965,0.005612
1577.767776,0.007008
1579.696588,0.008436
1581.625399,0.010211
1583.554211,0.012505
1585.483022,0.014705
1587.411834,0.016656
1589.340645,0.018766
1591.269456,0.021202
1593.198268,0.023463
1595.127079,0.025386
1597.055891,0.026824
1598.984702,0.027592
1600.913514,0.027922
1602.842325,0.027620
1604.771137,0.026463
1606.699948,0.024744
1608.628760,0.022832
1610.557571,0.020787
1612.486383,0.018765
1614.415194,0.016200
1616.344005,0.013338
1618.272817,0.015101
1620.201628,0.021171
1622.130440,0.027388
1624.059251,0.032236
1625.988063,0.035080
1627.916874,0.036278
1629.845686,0.035996
1631.774497,0.033986
1633.703309,0.030381
1635.632120,0.025445
1637.560932,0.021069
1639.489743,0.017606
1641.418555,0.014095
1643.347366,0.010887
1645.276177,0.007724
1647.204989,0.004978
1649.133800,0.003737
1651.062612,0.002483
1652.991423,0.000923
1654.920235,0.001250
1656.849046,0.002055
1658.777858,0.002113
1660.706669,0.001760
1662.635481,0.001502
1664.564292,0.001586
1666.493104,0.001521
1668.421915,0.001114
1670.350726,0.001118
1672.279538,0.001308
1674.208349,0.001217
1676.137161,0.001356
1678.065972,0.001574
1679.994784,0.001448
1681.923595,0.000976
1683.852407,0.000494
1685.781218,0.000931
1687.710030,0.001398
1689.638841,0.001260
1691.567653,0.001248
1693.496464,0.001030
1695.425275,0.000490
1697.354087,0.000326
1699.282898,-0.000033
1701.211710,0.000030
1703.140521,0.000599
1705.069333,0.000633
1706.998144,0.000784
1708.926956,0.001141
1710.855767,0.001155
1712.784579,0.000872
1714.713390,0.000394
1716.642202,0.000016
1718.571013,0.000210
1720.499824,0.000685
1722.428636,0.000819
1724.357447,0.000848
1726.286259,0.001022
1728.215070,0.000969
1730.143882,0.000689
1732.072693,0.000140
1734.001505,-0.000143
1735.930316,0.000533
1737.859128,0.000871
1739.787939,0.000733
1741.716751,0.000827
1743.645562,0.000995
1745.574373,0.000958
1747.503185,0.000682
1749.431996,0.000316
1751.360808,0.000308
1753.289619,0.000734
1755.218431,0.000879
1757.147242,0.000707
1759.076054,0.000629
1761.004865,0.000478
1762.933677,0.000575
1764.862488,0.000781
1766.791300,0.000492
1768.720111,0.000184
1770.648922,0.000012
1772.577734,-0.000130
1774.506545,0.000105
1776.435357,0.000389
1778.364168,0.000366
1780.292980,0.000275
1782.221791,0.000313
1784.150603,0.000273
1786.079414,0.000228
1788.008226,0.000207
1789.937037,-0.000141
1791.865849,-0.000471
1793.794660,-0.000263
1795.723471,-0.000052
1797.652283,-0.000124
1799.581094,-0.000274
1801.509906,-0.000355
1803.438717,-0.000243
1805.367529,-0.000076
1807.296340,0.000041
1809.225152,0.000043
1811.153963,-0.000034
1813.082775,0.000013
1815.011586,0.000199
1816.940398,0.000307
1818.869209,0.000337
1820.798021,0.000449
1822.726832,0.000508
1824.655643,0.000426
1826.584455,0.000491
1828.513266,0.000565
1830.442078,0.000540
1832.370889,0.000783
1834.299701,0.001064
1836.228512,0.001018
1838.157324,0.000973
1840.086135,0.001178
1842.014947,0.001200
1843.943758,0.001063
1845.872570,0.001274
1847.801381,0.001542
1849.730192,0.001608
1851.659004,0.001579
1853.587815,0.001549
1855.516627,0.001514
1857.445438,0.001374
1859.374250,0.001314
1861.303061,0.001219
1863.231873,0.000952
1865.160684,0.000716
1867.089496,0.000415
1869.018307,0.000133
1870.947119,0.000038
1872.875930,0.000418
1874.804741,0.001054
1876.733553,0.000781
1878.662364,0.000082
1880.591176,0.000103
1882.519987,0.000404
1884.448799,0.000642
1886.377610,0.000970
1888.306422,0.001314
1890.235233,0.001592
1892.164045,0.001781
1894.092856,0.001893
1896.021668,0.001958
1897.950479,0.002059
1899.879290,0.002206
1901.808102,0.002346
1903.736913,0.002417
1905.665725,0.002369
1907.594536,0.002318
1909.523348,0.002285
1911.452159,0.002182
1913.380971,0.002073
1915.309782,0.001902
1917.238594,0.001621
1919.167405,0.001442
1921.096217,0.001313
1923.025028,0.001127
1924.953839,0.001005
1926.882651,0.000894
1928.811462,0.000757
1930.740274,0.000674
1932.669085,0.000625
1934.597897,0.000514
1936.526708,0.000318
1938.455520,0.000165
1940.384331,0.000041
1942.313143,-0.000127
1944.241954,-0.000207
1946.170766,-0.000184
1948.099577,-0.000123
1950.028388,-0.000057
1951.957200,-0.000095
1953.886011,-0.000150
1955.814823,-0.000145
1957.743634,-0.000205
1959.672446,-0.000214
1961.601257,-0.000065
1963.530069,0.000097
1965.458880,0.000096
1967.387692,-0.000111
1969.316503,-0.000226
1971.245315,-0.000128
1973.174126,-0.000030
1975.102938,0.000054
1977.031749,0.000041
1978.960560,-0.000141
1980.889372,-0.000174
1982.818183,-0.000069
1984.746995,-0.000110
1986.675806,-0.000202
1988.604618,-0.000259
1990.533429,-0.000278
1992.462241,-0.000185
1994.391052,-0.000052
1996.319864,-0.000063
1998.248675,-0.000223
2000.177487,-0.000267
2002.106298,-0.000215
2004.035109,-0.000217
2005.963921,-0.000145
2007.892732,-0.000090
2009.821544,-0.000111
2011.750355,-0.000080
2013.679167,-0.000113
2015.607978,-0.000233
2017.536790,-0.000243
2019.465601,-0.000166
2021.394413,-0.000138
2023.323224,-0.000071
2025.252036,0.000051
2027.180847,0.000011
2029.109658,-0.000134
2031.038470,-0.000180
2032.967281,-0.000187
2034.896093,-0.000200
2036.824904,-0.000177
2038.753716,-0.000148
2040.682527,-0.000124
2042.611339,-0.000129
2044.540150,-0.000153
2046.468962,-0.000152
2048.397773,-0.000127
2050.326585,-0.000097
2052.255396,-0.000072
2054.184207,-0.000032
2056.113019,-0.000030
2058.041830,-0.000073
2059.970642,-0.000079
2061.899453,-0.000086
2063.828265,-0.000122
2065.757076,-0.000187
2067.685888,-0.000188
2069.614699,-0.000044
2071.543511,0.000027
2073.472322,-0.000060
2075.401134,-0.000152
2077.329945,-0.000169
2079.258756,-0.000087
2081.187568,-0.000013
2083.116379,-0.000060
2085.045191,-0.000104
2086.974002,-0.000001
2088.902814,0.000080
2090.831625,0.000030
2092.760437,-0.000036
2094.689248,-0.000072
2096.618060,-0.000081
2098.546871,-0.000120
2100.475683,-0.000148
2102.404494,-0.000140
2104.333305,-0.000153
2106.262117,-0.000110
2108.190928,-0.000077
2110.119740,-0.000061
2112.048551,0.000027
2113.977363,0.000055
2115.906174,0.000035
2117.834986,0.000062
2119.763797,0.000045
2121.692609,-0.000069
2123.621420,-0.000144
2125.550232,-0.000083
2127.479043,-0.000061
2129.407854,-0.000152
2131.336666,-0.000160
2133.265477,-0.000113
2135.194289,-0.000143
2137.123100,-0.000121
2139.051912,-0.000043
2140.980723,-0.000035
2142.909535,-0.000050
2144.838346,-0.000046
2146.767158,-0.000057
2148.695969,-0.000113
2150.624781,-0.000109
2152.553592,-0.000024
2154.482404,-0.000016
2156.411215,-0.000010
2158.340026,0.000001
2160.268838,-0.000070
2162.197649,-0.000062
2164.126461,0.000011
2166.055272,-0.000029
2167.984084,-0.000135
2169.912895,-0.000121
2171.841707,-0.000052
2173.770518,-0.000107
2175.699330,-0.000100
2177.628141,-0.000001
2179.556953,-0.000028
2181.485764,0.000015
2183.414575,0.000160
2185.343387,0.000128
2187.272198,0.000051
2189.201010,0.000074
2191.129821,0.000133
2193.058633,0.000284
2194.987444,0.000371
2196.916256,0.000268
2198.845067,0.000210
2200.773879,0.000243
2202.702690,0.000301
2204.631502,0.000360
2206.560313,0.000348
2208.489124,0.000342
2210.417936,0.000326
2212.346747,0.000270
2214.275559,0.000243
2216.204370,0.000180
2218.133182,0.000150
2220.061993,0.000159
2221.990805,0.000078
2223.919616,0.000118
2225.848428,0.000294
2227.777239,0.000339
2229.706051,0.000376
2231.634862,0.000454
2233.563673,0.000439
2235.492485,0.000473
2237.421296,0.000522
2239.350108,0.000467
2241.278919,0.000416
2243.207731,0.000404
2245.136542,0.000376
2247.065354,0.000236
2248.994165,0.000065
2250.922977,0.000034
2252.851788,0.000021
2254.780600,-0.000072
2256.709411,-0.000183
2258.638222,-0.000211
2260.567034,-0.000103
2262.495845,0.000010
2264.424657,-0.000028
2266.353468,-0.000155
2268.282280,-0.000182
2270.211091,-0.000157
2272.139903,-0.000123
2274.068714,-0.000028
2275.997526,-0.000097
2277.926337,-0.000248
2279.855149,-0.000219
2281.783960,-0.000150
2283.712771,-0.000089
2285.641583,-0.000015
2287.570394,-0.000000
2289.499206,-0.000010
2291.428017,-0.000033
2293.356829,-0.000108
2295.285640,-0.000247
2297.214452,-0.000308
2299.143263,-0.000063
2301.072075,0.000072
2303.000886,0.000133
2304.929698,0.000268
2306.858509,0.000338
2308.787320,0.000332
2310.716132,0.000385
2312.644943,0.000488
2314.573755,0.000533
2316.502566,0.000462
2318.431378,0.000436
2320.360189,0.000392
2322.289001,0.000162
2324.217812,-0.000001
2326.146624,0.000045
2328.075435,0.000042
2330.004247,0.000044
2331.933058,0.000087
2333.861870,0.000189
2335.790681,0.000250
2337.719492,0.000160
2339.648304,0.000140
2341.577115,0.000319
2343.505927,0.000704
2345.434738,0.001318
2347.363550,0.001888
2349.292361,0.002008
2351.221173,0.001594
2353.149984,0.000934
2355.078796,0.000307
2357.007607,-0.000109
2358.936419,0.000006
2360.865230,0.000299
2362.794041,-0.000168
2364.722853,-0.000748
2366.651664,-0.001005
2368.580476,0.000043
2370.509287,0.001308
2372.438099,0.000793
2374.366910,0.000061
2376.295722,0.000253
2378.224533,0.000277
2380.153345,0.000144
2382.082156,-0.000051
2384.010968,-0.000136
2385.939779,-0.000162
2387.868590,-0.000086
2389.797402,-0.000004
2391.726213,-0.000007
2393.655025,-0.000069
2395.583836,0.000032
2397.512648,0.000128
2399.441459,0.000099
2401.370271,0.000122
2403.299082,0.000156
2405.227894,0.000164
2407.156705,0.000145
2409.085517,0.000049
2411.014328,-0.000002
2412.943139,0.000067
2414.871951,0.000093
2416.800762,-0.000006
2418.729574,-0.000038
2420.658385,0.000013
2422.587197,0.000034
2424.516008,0.000095
2426.444820,0.000093
2428.373631,-0.000012
2430.302443,-0.000024
2432.231254,0.000085
2434.160066,0.000203
2436.088877,0.000221
2438.017688,0.000180
2439.946500,0.000161
2441.875311,0.000103
2443.804123,0.000052
2445.732934,0.000100
2447.661746,0.000079
2449.590557,0.000039
2451.519369,0.000175
2453.448180,0.000197
2455.376992,0.000038
2457.305803,-0.000030
2459.234615,-0.000113
2461.163426,-0.000186
2463.092237,-0.000081
2465.021049,0.000105
2466.949860,0.000228
2468.878672,0.000160
2470.807483,0.000006
2472.736295,-0.000001
2474.665106,0.000012
2476.593918,-0.000024
2478.522729,0.000070
2480.451541,0.000127
2482.380352,0.000022
2484.309164,0.000000
2486.237975,0.000048
2488.166786,-0.000007
2490.095598,-0.000077
2492.024409,-0.000096
2493.953221,-0.000089
2495.882032,-0.000046
2497.810844,-0.000005
2499.739655,-0.000026
2501.668467,-0.000118
2503.597278,-0.000141
2505.526090,0.000034
2507.454901,0.000202
2509.383713,0.000166
2511.312524,0.000012
2513.241336,-0.000044
2515.170147,0.000080
2517.098958,0.000132
2519.027770,0.000061
2520.956581,0.000042
2522.885393,0.000007
2524.814204,-0.000049
2526.743016,-0.000089
2528.671827,-0.000158
2530.600639,-0.000108
2532.529450,0.000061
2534.458262,0.000073
2536.387073,-0.000017
2538.315885,-0.000029
2540.244696,-0.000060
2542.173507,-0.000058
2544.102319,0.000019
2546.031130,0.000067
2547.959942,0.000110
2549.888753,0.000083
2551.817565,-0.000006
2553.746376,-0.000032
2555.675188,-0.000001
2557.603999,0.000033
2559.532811,0.000045
2561.461622,0.000151
2563.390434,0.000184
2565.319245,-0.000010
2567.248056,-0.000070
2569.176868,-0.000020
2571.105679,-0.000012
2573.034491,0.000096
2574.963302,0.000132
2576.892114,0.000095
2578.820925,0.000137
2580.749737,0.000121
2582.678548,0.000050
2584.607360,0.000023
2586.536171,-0.000019
2588.464983,-0.000061
2590.393794,0.000015
2592.322605,0.000096
2594.251417,-0.000014
2596.180228,-0.000094
2598.109040,0.000053
2600.037851,0.000143
2601.966663,0.000046
2603.895474,-0.000045
2605.824286,-0.000083
2607.753097,-0.000051
2609.681909,0.000052
2611.610720,0.000057
2613.539532,-0.000038
2615.468343,-0.000043
2617.397154,-0.000001
2619.325966,-0.000038
2621.254777,-0.000010
2623.183589,0.000140
2625.112400,0.000233
2627.041212,0.000246
2628.970023,0.000160
2630.898835,-0.000032
2632.827646,-0.000103
2634.756458,-0.000041
2636.685269,-0.000058
2638.614081,-0.000081
2640.542892,-0.000002
2642.471703,0.000074
2644.400515,0.000156
2646.329326,0.000195
2648.258138,0.000138
2650.186949,0.000136
2652.115761,0.000068
2654.044572,-0.000090
2655.973384,-0.000080
2657.902195,0.000013
2659.831007,-0.000011
2661.759818,-0.000110
2663.688630,-0.000091
2665.617441,-0.000031
2667.546253,-0.000047
2669.475064,0.000021
2671.403875,0.000028
2673.332687,-0.000023
2675.261498,-0.000001
2677.190310,-0.000019
2679.119121,0.000043
2681.047933,0.000053
2682.976744,-0.000001
2684.905556,0.000115
2686.834367,0.000036
2688.763179,-0.000145
2690.691990,-0.000039
2692.620802,0.000013
2694.549613,-0.000076
