XLabel,Wavenumber
YLabel,Absorbance
FileType,Absorbance
DisplayDirection,20300
PeakDirection,20312
898.826141,0.000031
900.754953,0.000497
902.683764,0.000284
904.612576,-0.000031
906.541387,-0.000035
908.470199,-0.000209
910.399010,0.000077
912.327822,0.000054
914.256633,-0.000334
916.185445,-0.000157
918.114256,0.000071
920.043068,0.000153
921.971879,-0.000068
923.900690,-0.000239
925.829502,-0.000106
927.758313,-0.000016
929.687125,0.000151
931.615936,-0.000070
933.544748,-0.000137
935.473559,0.000215
937.402371,0.000118
939.331182,0.000262
941.259994,0.000381
943.188805,-0.000154
945.117617,-0.000274
947.046428,0.000082
948.975240,0.000109
950.904051,-0.000198
952.832862,-0.000388
954.761674,-0.000292
956.690485,-0.000026
958.619297,0.000298
960.548108,0.000370
962.476920,0.000177
964.405731,-0.000051
966.334543,-0.000074
968.263354,0.000291
970.192166,0.000473
972.120977,0.000143
974.049789,-0.000137
975.978600,-0.000158
977.907411,-0.000184
979.836223,-0.000301
981.765034,-0.000241
983.693846,0.000037
985.622657,0.000082
987.551469,-0.000061
989.480280,-0.000055
991.409092,0.000038
993.337903,0.000069
995.266715,-0.000043
997.195526,-0.000101
999.124338,-0.000081
1001.053149,-0.000124
1002.981960,0.000007
1004.910772,0.000153
1006.839583,0.000032
1008.768395,0.000004
1010.697206,0.000155
1012.626018,0.000148
1014.554829,0.000050
1016.483641,0.000039
1018.412452,-0.000009
1020.341264,-0.000087
1022.270075,-0.000076
1024.198887,-0.000090
1026.127698,-0.000103
1028.056509,-0.000006
1029.985321,-0.000038
1031.914132,-0.000189
1033.842944,-0.000144
1035.771755,-0.000008
1037.700567,0.000053
1039.629378,0.000076
1041.558190,0.000042
1043.487001,0.000039
1045.415813,0.000065
1047.344624,0.000032
1049.273436,-0.000012
1051.202247,-0.000035
1053.131058,-0.000038
1055.059870,-0.000024
1056.988681,0.000076
1058.917493,0.000218
1060.846304,0.000228
1062.775116,0.000169
1064.703927,0.000172
1066.632739,0.000184
1068.561550,0.000171
1070.490362,0.000148
1072.419173,0.000117
1074.347985,0.000088
1076.276796,0.000095
1078.205607,0.000160
1080.134419,0.000236
1082.063230,0.000225
1083.992042,0.000187
1085.920853,0.000192
1087.849665,0.000168
1089.778476,0.000143
1091.707288,0.000141
1093.636099,0.000137
1095.564911,0.000134
1097.493722,0.000115
1099.422534,0.000100
1101.351345,0.000055
1103.280156,-0.000012
1105.208968,-0.000029
1107.137779,-0.000025
1109.066591,0.000008
1110.995402,0.000073
1112.924214,0.000114
1114.853025,0.000059
1116.781837,-0.000019
1118.710648,0.000034
1120.639460,0.000036
1122.568271,-0.000072
1124.497083,-0.000037
1126.425894,0.000029
1128.354706,0.000023
1130.283517,0.000031
1132.212328,-0.000017
1134.141140,-0.000032
1136.069951,-0.000006
1137.998763,-0.000034
1139.927574,0.000015
1141.856386,0.000054
1143.785197,-0.000036
1145.714009,-0.000071
1147.642820,-0.000043
1149.571632,-0.000056
1151.500443,-0.000084
1153.429255,-0.000066
1155.358066,-0.000027
1157.286877,-0.000043
1159.215689,-0.000044
1161.144500,-0.000045
1163.073312,-0.000140
1165.002123,-0.000181
1166.930935,-0.000087
1168.859746,0.000020
1170.788558,0.000025
1172.717369,-0.000097
1174.646181,-0.000207
1176.574992,-0.000172
1178.503804,-0.000071
1180.432615,-0.000055
1182.361426,-0.000090
1184.290238,-0.000045
1186.219049,-0.000012
1188.147861,-0.000077
1190.076672,-0.000115
1192.005484,-0.000149
1193.934295,-0.000178
1195.863107,-0.000103
1197.791918,-0.000093
1199.720730,-0.000211
1201.649541,-0.000277
1203.578353,-0.000244
1205.507164,-0.000156
1207.435975,-0.000081
1209.364787,-0.000066
1211.293598,-0.000108
1213.222410,-0.000147
1215.151221,-0.000108
1217.080033,-0.000060
1219.008844,-0.000041
1220.937656,-0.000005
1222.866467,-0.000015
1224.795279,-0.000034
1226.724090,0.000046
1228.652902,0.000145
1230.581713,0.000224
1232.510524,0.000349
1234.439336,0.000455
1236.368147,0.000505
1238.296959,0.000623
1240.225770,0.000797
1242.154582,0.000949
1244.083393,0.001075
1246.012205,0.001143
1247.941016,0.001234
1249.869828,0.001339
1251.798639,0.001310
1253.727451,0.001112
1255.656262,0.000908
1257.585073,0.000763
1259.513885,0.000589
1261.442696,0.000913
1263.371508,0.001580
1265.300319,0.001393
1267.229131,0.000832
1269.157942,0.000922
1271.086754,0.001226
1273.015565,0.001371
1274.944377,0.001439
1276.873188,0.001375
1278.802000,0.001255
1280.730811,0.001166
1282.659622,0.001014
1284.588434,0.000860
1286.517245,0.000754
1288.446057,0.000548
1290.374868,0.000363
1292.303680,0.000232
1294.232491,0.000014
1296.161303,-0.000101
1298.090114,-0.000104
1300.018926,-0.000145
1301.947737,-0.000111
1303.876549,-0.000058
1305.805360,-0.000115
1307.734172,-0.000148
1309.662983,-0.000095
1311.591794,-0.000050
1313.520606,-0.000073
1315.449417,-0.000114
1317.378229,-0.000133
1319.307040,-0.000173
1321.235852,-0.000138
1323.164663,-0.000048
1325.093475,-0.000117
1327.022286,-0.000211
1328.951098,-0.000087
1330.879909,0.000086
1332.808721,0.000111
1334.737532,0.000174
1336.666343,0.000310
1338.595155,0.000304
1340.523966,0.000247
1342.452778,0.000252
1344.381589,0.000310
1346.310401,0.000472
1348.239212,0.000552
1350.168024,0.000421
1352.096835,0.000267
1354.025647,0.000217
1355.954458,0.000232
1357.883270,0.000179
1359.812081,0.000101
1361.740892,0.000191
1363.669704,0.000286
1365.598515,0.000234
1367.527327,0.000168
1369.456138,0.000114
1371.384950,0.000163
1373.313761,0.000295
1375.242573,0.000239
1377.171384,0.000127
1379.100196,0.000140
1381.029007,0.000155
1382.957819,0.000210
1384.886630,0.000363
1386.815441,0.000427
1388.744253,0.000339
1390.673064,0.000317
1392.601876,0.000444
1394.530687,0.000542
1396.459499,0.000518
1398.388310,0.000431
1400.317122,0.000305
1402.245933,0.000285
1404.174745,0.000311
1406.103556,0.000206
1408.032368,0.000109
1409.961179,0.000048
1411.889990,-0.000055
1413.818802,-0.000134
1415.747613,-0.000106
1417.676425,0.000060
1419.605236,0.000090
1421.534048,-0.000056
1423.462859,-0.000137
1425.391671,-0.000152
1427.320482,-0.000140
1429.249294,-0.000109
1431.178105,-0.000160
1433.106917,-0.000117
1435.035728,0.000101
1436.964539,0.000091
1438.893351,-0.000202
1440.822162,-0.000266
1442.750974,-0.000170
1444.679785,-0.000169
1446.608597,-0.000088
1448.537408,0.000035
1450.466220,0.000063
1452.395031,0.000145
1454.323843,0.000342
1456.252654,0.000643
1458.181466,0.000589
1460.110277,0.000177
1462.039089,0.000046
1463.967900,0.000168
1465.896711,0.000186
1467.825523,0.000173
1469.754334,0.000390
1471.683146,0.000678
1473.611957,0.000629
1475.540769,0.000381
1477.469580,0.000196
1479.398392,-0.000018
1481.327203,-0.000106
1483.256015,-0.000133
1485.184826,-0.000139
1487.113638,-0.000040
1489.042449,0.000031
1490.971260,-0.000051
1492.900072,-0.000160
1494.828883,-0.000021
1496.757695,0.000202
1498.686506,0.000106
1500.615318,-0.000083
1502.544129,-0.000119
1504.472941,0.000190
1506.401752,0.000637
1508.330564,0.000440
1510.259375,0.000108
1512.188187,0.000019
1514.116998,0.000115
1516.045809,0.000275
1517.974621,0.000312
1519.903432,0.000359
1521.832244,0.000327
1523.761055,0.000143
1525.689867,0.000064
1527.618678,-0.000033
1529.547490,-0.000163
1531.476301,-0.000101
1533.405113,0.000003
1535.333924,-0.000046
1537.262736,0.000098
1539.191547,0.000508
1541.120358,0.000504
1543.049170,0.000217
1544.977981,0.000004
1546.906793,-0.000161
1548.835604,-0.000148
1550.764416,-0.000028
1552.693227,0.000109
1554.622039,0.000328
1556.550850,0.000766
1558.479662,0.001447
1560.408473,0.001520
1562.337285,0.001324
1564.266096,0.001627
1566.194907,0.002252
1568.123719,0.003073
1570.052530,0.004112
1571.981342,0.005146
1573.910153,0.006538
1575.838965,0.008676
1577.767776,0.010850
1579.696588,0.013076
1581.625399,0.015988
1583.554211,0.019374
1585.483022,0.023153
1587.411834,0.027270
1589.340645,0.031543
1591.269456,0.035896
1593.198268,0.039983
1595.127079,0.043546
1597.055891,0.046320
1598.984702,0.048194
1600.913514,0.048902
1602.842325,0.048171
1604.771137,0.046232
1606.699948,0.043253
1608.628760,0.039706
1610.557571,0.035616
1612.486383,0.031514
1614.415194,0.027376
1616.344005,0.023150
1618.272817,0.026215
1620.201628,0.037109
1622.130440,0.049258
1624.059251,0.058485
1625.988063,0.063273
1627.916874,0.065183
1629.845686,0.064143
1631.774497,0.060159
1633.703309,0.054491
1635.632120,0.046295
1637.560932,0.037393
1639.489743,0.030074
1641.418555,0.022727
1643.347366,0.016314
1645.276177,0.011643
1647.204989,0.007462
1649.133800,0.004507
1651.062612,0.003125
1652.991423,0.002201
1654.920235,0.001046
1656.849046,0.000343
1658.777858,0.000105
1660.706669,0.000162
1662.635481,0.000219
1664.564292,0.000049
1666.493104,0.000046
1668.421915,0.000243
1670.350726,0.000192
1672.279538,0.000040
1674.208349,0.000230
1676.137161,0.000412
1678.065972,0.000400
1679.994784,0.000519
1681.923595,0.000834
1683.852407,0.001133
1685.781218,0.000877
1687.710030,0.000515
1689.638841,0.000336
1691.567653,0.000115
1693.496464,0.000050
1695.425275,0.000310
1697.354087,0.000939
1699.282898,0.001299
1701.211710,0.000460
1703.140521,-0.000243
1705.069333,-0.000098
1706.998144,0.000128
1708.926956,0.000274
1710.855767,0.000477
1712.784579,0.000643
1714.713390,0.000853
1716.642202,0.001064
1718.571013,0.000813
1720.499824,0.000312
1722.428636,0.000109
1724.357447,-0.000033
1726.286259,-0.000240
1728.215070,-0.000294
1730.143882,-0.000233
1732.072693,0.000009
1734.001505,0.000132
1735.930316,-0.000197
1737.859128,-0.000300
1739.787939,-0.000166
1741.716751,-0.000170
1743.645562,-0.000188
1745.574373,-0.000122
1747.503185,-0.000004
1749.431996,0.000118
1751.360808,0.000069
1753.289619,-0.000089
1755.218431,-0.000107
1757.147242,-0.000029
1759.076054,0.000042
1761.004865,0.000091
1762.933677,0.000025
1764.862488,-0.000009
1766.791300,0.000052
1768.720111,0.000033
1770.648922,0.000113
1772.577734,0.000187
1774.506545,0.000019
1776.435357,-0.000174
1778.364168,-0.000223
1780.292980,-0.000174
1782.221791,-0.000126
1784.150603,-0.000065
1786.079414,-0.000046
1788.008226,-0.000055
1789.937037,0.000075
1791.865849,0.000197
1793.794660,0.000151
1795.723471,0.000160
1797.652283,0.000289
1799.581094,0.000384
1801.509906,0.000425
1803.438717,0.000476
1805.367529,0.000551
1807.296340,0.000685
1809.225152,0.000856
1811.153963,0.001048
1813.082775,0.001284
1815.011586,0.001491
1816.940398,0.001693
1818.869209,0.001962
1820.798021,0.002214
1822.726832,0.002523
1824.655643,0.002917
1826.584455,0.003203
1828.513266,0.003461
1830.442078,0.003674
1832.370889,0.003830
1834.299701,0.004106
1836.228512,0.004454
1838.157324,0.004747
1840.086135,0.004972
1842.014947,0.005403
1843.943758,0.005878
1845.872570,0.005874
1847.801381,0.005721
1849.730192,0.005654
1851.659004,0.005550
1853.587815,0.005421
1855.516627,0.005221
1857.445438,0.004924
1859.374250,0.004609
1861.303061,0.004171
1863.231873,0.003577
1865.160684,0.002972
1867.089496,0.002363
1869.018307,0.001632
1870.947119,0.000657
1872.875930,0.001206
1874.804741,0.003205
1876.733553,0.002448
1878.662364,0.000090
1880.591176,0.000176
1882.519987,0.001456
1884.448799,0.002518
1886.377610,0.003574
1888.306422,0.004579
1890.235233,0.005510
1892.164045,0.006138
1894.092856,0.006784
1896.021668,0.007378
1897.950479,0.007692
1899.879290,0.007941
1901.808102,0.008121
1903.736913,0.008246
1905.665725,0.008237
1907.594536,0.008095
1909.523348,0.007893
1911.452159,0.007573
1913.380971,0.007165
1915.309782,0.006665
1917.238594,0.006090
1919.167405,0.005617
1921.096217,0.005228
1923.025028,0.004716
1924.953839,0.004138
1926.882651,0.003592
1928.811462,0.003067
1930.740274,0.002646
1932.669085,0.002302
1934.597897,0.001916
1936.526708,0.001503
1938.455520,0.001195
1940.384331,0.000995
1942.313143,0.000801
1944.241954,0.000582
1946.170766,0.000419
1948.099577,0.000342
1950.028388,0.000228
1951.957200,0.000136
1953.886011,0.000090
1955.814823,-0.000019
1957.743634,-0.000039
1959.672446,0.000003
1961.601257,-0.000037
1963.530069,-0.000098
1965.458880,-0.000079
1967.387692,-0.000009
1969.316503,-0.000010
1971.245315,-0.000084
1973.174126,-0.000142
1975.102938,-0.000165
1977.031749,-0.000150
1978.960560,-0.000114
1980.889372,-0.000084
1982.818183,-0.000061
1984.746995,-0.000078
1986.675806,-0.000112
1988.604618,-0.000070
1990.533429,-0.000015
1992.462241,-0.000011
1994.391052,0.000006
1996.319864,-0.000028
1998.248675,-0.000121
2000.177487,-0.000148
2002.106298,-0.000157
2004.035109,-0.000179
2005.963921,-0.000155
2007.892732,-0.000110
2009.821544,-0.000061
2011.750355,-0.000049
2013.679167,-0.000077
2015.607978,-0.000086
2017.536790,-0.000061
2019.465601,-0.000017
2021.394413,0.000008
2023.323224,0.000012
2025.252036,-0.000009
2027.180847,-0.000053
2029.109658,-0.000091
2031.038470,-0.000111
2032.967281,-0.000071
2034.896093,-0.000021
2036.824904,-0.000042
2038.753716,-0.000096
2040.682527,-0.000114
2042.611339,-0.000065
2044.540150,-0.000026
2046.468962,-0.000017
2048.397773,-0.000011
2050.326585,-0.000047
2052.255396,-0.000030
2054.184207,0.000045
2056.113019,0.000045
2058.041830,0.000013
2059.970642,-0.000004
2061.899453,-0.000027
2063.828265,-0.000032
2065.757076,-0.000009
2067.685888,-0.000012
2069.614699,-0.000045
2071.543511,-0.000042
2073.472322,-0.000055
2075.401134,-0.000109
2077.329945,-0.000115
2079.258756,-0.000083
2081.187568,-0.000062
2083.116379,-0.000066
2085.045191,-0.000051
2086.974002,0.000014
2088.902814,0.000060
2090.831625,0.000070
2092.760437,0.000049
2094.689248,0.000025
2096.618060,0.000038
2098.546871,0.000027
2100.475683,-0.000004
2102.404494,-0.000027
2104.333305,-0.000045
2106.262117,-0.000014
2108.190928,0.000010
2110.119740,0.000013
2112.048551,0.000021
2113.977363,-0.000030
2115.906174,-0.000043
2117.834986,-0.000003
2119.763797,-0.000028
2121.692609,-0.000010
2123.621420,0.000063
2125.550232,0.000056
2127.479043,-0.000012
2129.407854,-0.000045
2131.336666,-0.000007
2133.265477,0.000010
2135.194289,-0.000013
2137.123100,0.000006
2139.051912,0.000044
2140.980723,0.000018
2142.909535,-0.000061
2144.838346,-0.000054
2146.767158,0.000041
2148.695969,0.000058
2150.624781,0.000021
2152.553592,0.000003
2154.482404,0.000002
2156.411215,0.000043
2158.340026,0.000053
2160.268838,0.000001
2162.197649,0.000001
2164.126461,0.000046
2166.055272,0.000064
2167.984084,0.000076
2169.912895,0.000086
2171.841707,0.000066
2173.770518,0.000035
2175.699330,0.000035
2177.628141,0.000047
2179.556953,0.000066
2181.485764,0.000100
2183.414575,0.000106
2185.343387,0.000132
2187.272198,0.000175
2189.201010,0.000145
2191.129821,0.000138
2193.058633,0.000177
2194.987444,0.000161
2196.916256,0.000164
2198.845067,0.000204
2200.773879,0.000199
2202.702690,0.000187
2204.631502,0.000202
2206.560313,0.000249
2208.489124,0.000337
2210.417936,0.000375
2212.346747,0.000297
2214.275559,0.000229
2216.204370,0.000242
2218.133182,0.000214
2220.061993,0.000121
2221.990805,0.000052
2223.919616,0.000061
2225.848428,0.000132
2227.777239,0.000196
2229.706051,0.000223
2231.634862,0.000245
2233.563673,0.000331
2235.492485,0.000429
2237.421296,0.000392
2239.350108,0.000330
2241.278919,0.000348
2243.207731,0.000301
2245.136542,0.000202
2247.065354,0.000166
2248.994165,0.000127
2250.922977,0.000076
2252.851788,0.000050
2254.780600,0.000004
2256.709411,-0.000029
2258.638222,-0.000020
2260.567034,-0.000050
2262.495845,-0.000089
2264.424657,-0.000043
2266.353468,0.000008
2268.282280,-0.000001
2270.211091,-0.000019
2272.139903,-0.000038
2274.068714,-0.000030
2275.997526,0.000004
2277.926337,0.000011
2279.855149,-0.000001
2281.783960,-0.000022
2283.712771,-0.000032
2285.641583,-0.000029
2287.570394,-0.000031
2289.499206,-0.000028
2291.428017,-0.000037
2293.356829,-0.000028
2295.285640,-0.000014
2297.214452,-0.000059
2299.143263,-0.000092
2301.072075,-0.000086
2303.000886,-0.000058
2304.929698,-0.000060
2306.858509,-0.000035
2308.787320,0.000004
2310.716132,0.000017
2312.644943,0.000004
2314.573755,-0.000001
2316.502566,-0.000047
2318.431378,-0.000120
2320.360189,-0.000115
2322.289001,-0.000106
2324.217812,-0.000168
2326.146624,-0.000212
2328.075435,-0.000204
2330.004247,-0.000200
2331.933058,-0.000195
2333.861870,-0.000149
2335.790681,-0.000130
2337.719492,-0.000114
2339.648304,0.000020
2341.577115,0.000167
2343.505927,0.000390
2345.434738,0.000781
2347.363550,0.001214
2349.292361,0.001418
2351.221173,0.001169
2353.149984,0.000784
2355.078796,0.000647
2357.007607,0.000561
2358.936419,0.000519
2360.865230,0.000356
2362.794041,0.000223
2364.722853,0.000086
2366.651664,0.000024
2368.580476,0.000009
2370.509287,0.000057
2372.438099,0.000173
2374.366910,0.000257
2376.295722,0.000313
2378.224533,0.000361
2380.153345,0.000327
2382.082156,0.000171
2384.010968,-0.000051
2385.939779,-0.000032
2387.868590,0.000030
2389.797402,0.000089
2391.726213,0.000109
2393.655025,0.000038
2395.583836,-0.000009
2397.512648,-0.000001
2399.441459,-0.000064
2401.370271,-0.000081
2403.299082,-0.000020
2405.227894,-0.000018
2407.156705,-0.000007
2409.085517,-0.000005
2411.014328,-0.000054
2412.943139,-0.000019
2414.871951,0.000058
2416.800762,0.000055
2418.729574,0.000017
2420.658385,-0.000000
2422.587197,-0.000015
2424.516008,-0.000029
2426.444820,-0.000033
2428.373631,-0.000034
2430.302443,0.000004
2432.231254,0.000003
2434.160066,-0.000050
2436.088877,-0.000014
2438.017688,0.000032
2439.946500,0.000024
2441.875311,0.000023
2443.804123,0.000011
2445.732934,0.000007
2447.661746,0.000027
2449.590557,0.000041
2451.519369,0.000052
2453.448180,0.000046
2455.376992,-0.000012
2457.305803,-0.000035
2459.234615,0.000020
2461.163426,0.000017
2463.092237,-0.000055
2465.021049,-0.000106
2466.949860,-0.000087
2468.878672,-0.000034
2470.807483,-0.000007
2472.736295,0.000033
2474.665106,0.000037
2476.593918,-0.000037
2478.522729,-0.000063
2480.451541,-0.000019
2482.380352,0.000004
2484.309164,-0.000001
2486.237975,0.000002
2488.166786,0.000026
2490.095598,0.000041
2492.024409,0.000021
2493.953221,-0.000005
2495.882032,-0.000005
2497.810844,0.000013
2499.739655,-0.000009
2501.668467,-0.000061
2503.597278,-0.000042
2505.526090,0.000036
2507.454901,0.000084
2509.383713,0.000039
2511.312524,-0.000041
2513.241336,-0.000041
2515.170147,-0.000028
2517.098958,-0.000049
2519.027770,-0.000014
2520.956581,0.000031
2522.885393,-0.000025
2524.814204,-0.000059
2526.743016,0.000050
2528.671827,0.000114
2530.600639,0.000059
2532.529450,0.000020
2534.458262,-0.000007
2536.387073,-0.000018
2538.315885,-0.000004
2540.244696,-0.000003
2542.173507,0.000001
2544.102319,-0.000024
2546.031130,-0.000053
2547.959942,-0.000002
2549.888753,0.000022
2551.817565,-0.000029
2553.746376,-0.000022
2555.675188,0.000046
2557.603999,0.000056
2559.532811,0.000020
2561.461622,0.000020
2563.390434,0.000040
2565.319245,0.000060
2567.248056,0.000051
2569.176868,0.000020
2571.105679,0.000030
2573.034491,0.000047
2574.963302,0.000053
2576.892114,0.000043
2578.820925,0.000012
2580.749737,0.000017
2582.678548,0.000000
2584.607360,-0.000007
2586.536171,0.000063
2588.464983,0.000091
2590.393794,0.000084
2592.322605,0.000093
2594.251417,0.000037
2596.180228,-0.000039
2598.109040,-0.000010
2600.037851,0.000082
2601.966663,0.000112
2603.895474,0.000109
2605.824286,0.000115
2607.753097,0.000049
2609.681909,-0.000019
2611.610720,0.000003
2613.539532,0.000016
2615.468343,-0.000021
2617.397154,-0.000023
2619.325966,0.000018
2621.254777,0.000064
2623.183589,0.000095
2625.112400,0.000054
2627.041212,-0.000026
2628.970023,-0.000005
2630.898835,0.000042
2632.827646,-0.000004
2634.756458,0.000005
2636.685269,0.000106
2638.614081,0.000126
2640.542892,0.000062
2642.471703,0.000001
2644.400515,-0.000008
2646.329326,0.000030
2648.258138,0.000008
2650.186949,-0.000041
2652.115761,-0.000040
2654.044572,-0.000039
2655.973384,-0.000019
2657.902195,0.000001
2659.831007,-0.000023
2661.759818,-0.000025
2663.688630,-0.000004
2665.617441,0.000036
2667.546253,0.000053
2669.475064,0.000011
2671.403875,0.000008
2673.332687,0.000016
2675.261498,-0.000019
2677.190310,-0.000019
2679.119121,-0.000032
2681.047933,-0.000042
2682.976744,0.000044
2684.905556,0.000087
2686.834367,0.000063
2688.763179,0.000071
2690.691990,-0.000024
2692.620802,-0.000133
2694.549613,-0.000071
2696.478424,-0.000024
