XLabel,Wavenumber
YLabel,Absorbance
FileType,Absorbance
DisplayDirection,20300
PeakDirection,20312
899.790547,0.000030
900.272750,-0.000035
900.754953,0.000582
901.237156,0.001355
901.719359,0.001444
902.201562,0.000788
902.683764,-0.000254
903.165967,-0.000623
903.648170,-0.000672
904.130373,-0.000611
904.612576,0.000309
905.094779,0.001043
905.576982,0.000880
906.059184,0.001440
906.541387,0.002308
907.023590,0.001955
907.505793,0.001173
907.987996,0.000654
908.470199,0.000005
908.952402,-0.000321
909.434605,0.000376
909.916807,0.000900
910.399010,0.000423
910.881213,-0.000512
911.363416,-0.001496
911.845619,-0.000995
912.327822,0.000186
912.810025,-0.000378
913.292227,-0.001129
913.774430,-0.000797
914.256633,-0.000330
914.738836,0.000059
915.221039,-0.000218
915.703242,-0.001204
916.185445,-0.001658
916.667648,-0.001223
917.149850,-0.000306
917.632053,0.000566
918.114256,0.000636
918.596459,0.000112
919.078662,0.000004
919.560865,0.000115
920.043068,0.000150
920.525270,0.000741
921.007473,0.000931
921.489676,0.000129
921.971879,0.000189
922.454082,0.001238
922.936285,0.001609
923.418488,0.000727
923.900690,-0.000270
924.382893,0.000212
924.865096,0.001564
925.347299,0.002204
925.829502,0.001444
926.311705,0.000035
926.793908,-0.000702
927.276111,-0.000729
927.758313,-0.000046
928.240516,0.000580
928.722719,0.000530
929.204922,0.000702
929.687125,0.000573
930.169328,0.000061
930.651531,-0.000021
931.133733,0.000246
931.615936,0.000664
932.098139,0.000226
932.580342,-0.000595
933.062545,-0.000133
933.544748,0.000828
934.026951,0.000544
934.509154,-0.000593
934.991356,-0.000245
935.473559,0.000832
935.955762,0.000053
936.437965,-0.000744
936.920168,0.000033
937.402371,0.000784
937.884574,0.001096
938.366776,0.000982
938.848979,0.000546
939.331182,0.000513
939.813385,0.000417
940.295588,-0.000022
940.777791,-0.000356
941.259994,-0.000434
941.742197,0.000066
942.224399,0.000621
942.706602,0.000330
943.188805,-0.000343
943.671008,-0.000683
944.153211,-0.000628
944.635414,-0.000350
945.117617,-0.000142
945.599819,-0.000112
946.082022,0.000118
946.564225,0.000411
947.046428,0.000242
947.528631,-0.000025
948.010834,-0.000195
948.493037,-0.000434
948.975240,-0.000433
949.457442,-0.000129
949.939645,-0.000016
950.421848,-0.000340
950.904051,-0.000469
951.386254,-0.000314
951.868457,-0.000270
952.350660,0.000103
952.832862,0.000410
953.315065,-0.000033
953.797268,-0.000478
954.279471,-0.000389
954.761674,-0.000305
955.243877,-0.000399
955.726080,-0.000118
956.208282,0.000147
956.690485,-0.000180
957.172688,-0.000383
957.654891,-0.000150
958.137094,0.000125
958.619297,0.000221
959.101500,0.000119
959.583703,0.000171
960.065905,0.000379
960.548108,0.000388
961.030311,0.000233
961.512514,0.000042
961.994717,-0.000304
962.476920,-0.000605
962.959123,-0.000381
963.441325,-0.000125
963.923528,-0.000232
964.405731,-0.000105
964.887934,0.000025
965.370137,-0.000020
965.852340,0.000137
966.334543,0.000099
966.816746,-0.000117
967.298948,-0.000050
967.781151,0.000227
968.263354,0.000287
968.745557,-0.000018
969.227760,0.000030
969.709963,0.000430
970.192166,0.000341
970.674368,0.000049
971.156571,-0.000087
971.638774,-0.000215
972.120977,-0.000079
972.603180,-0.000003
973.085383,-0.000226
973.567586,-0.000092
974.049789,0.000129
974.531991,-0.000107
975.014194,-0.000370
975.496397,-0.000286
975.978600,-0.000070
976.460803,-0.000038
976.943006,0.000080
977.425209,0.000303
977.907411,0.000086
978.389614,-0.000359
978.871817,-0.000423
979.354020,-0.000218
979.836223,-0.000235
980.318426,-0.000335
980.800629,-0.000122
981.282831,0.000177
981.765034,0.000251
982.247237,0.000195
982.729440,0.000249
983.211643,0.000219
983.693846,0.000002
984.176049,-0.000115
984.658252,-0.000251
985.140454,-0.000227
985.622657,0.000138
986.104860,0.000264
986.587063,0.000089
987.069266,0.000033
987.551469,0.000203
988.033672,0.000398
988.515874,0.000424
988.998077,0.000259
989.480280,0.000002
989.962483,0.000005
990.444686,0.000074
990.926889,-0.000068
991.409092,-0.000008
991.891295,0.000098
992.373497,0.000025
992.855700,0.000023
993.337903,-0.000034
993.820106,-0.000158
994.302309,-0.000189
994.784512,-0.000203
995.266715,-0.000162
995.748917,0.000015
996.231120,0.000052
996.713323,-0.000054
997.195526,-0.000105
997.677729,-0.000275
998.159932,-0.000339
998.642135,-0.000143
999.124338,-0.000063
999.606540,-0.000096
1000.088743,-0.000144
1000.570946,-0.000221
1001.053149,-0.000105
1001.535352,0.000158
1002.017555,0.000097
1002.499758,-0.000052
1002.981960,0.000010
1003.464163,-0.000137
1003.946366,-0.000117
1004.428569,0.000229
1004.910772,0.000233
1005.392975,0.000057
1005.875178,0.000084
1006.357381,0.000230
1006.839583,0.000266
1007.321786,0.000181
1007.803989,0.000023
1008.286192,-0.000145
1008.768395,0.000049
1009.250598,0.000354
1009.732801,0.000348
1010.215003,0.000181
1010.697206,0.000013
1011.179409,0.000027
1011.661612,0.000165
1012.143815,0.000242
1012.626018,0.000175
1013.108221,-0.000023
1013.590423,-0.000106
1014.072626,-0.000097
1014.554829,-0.000108
1015.037032,-0.000079
1015.519235,-0.000090
1016.001438,-0.000125
1016.483641,-0.000054
1016.965844,-0.000064
1017.448046,-0.000208
1017.930249,-0.000077
1018.412452,0.000198
1018.894655,0.000180
1019.376858,0.000022
1019.859061,-0.000092
1020.341264,-0.000110
1020.823466,0.000008
1021.305669,0.000098
1021.787872,0.000197
1022.270075,0.000317
1022.752278,0.000175
1023.234481,0.000022
1023.716684,0.000100
1024.198887,0.000044
1024.681089,0.000005
1025.163292,0.000164
1025.645495,0.000207
1026.127698,0.000106
1026.609901,-0.000015
1027.092104,-0.000042
1027.574307,-0.000042
1028.056509,-0.000116
1028.538712,-0.000143
1029.020915,-0.000228
1029.503118,-0.000372
1029.985321,-0.000308
1030.467524,-0.000088
1030.949727,-0.000029
1031.431930,-0.000085
1031.914132,-0.000006
1032.396335,0.000132
1032.878538,0.000136
1033.360741,-0.000065
1033.842944,-0.000227
1034.325147,-0.000214
1034.807350,-0.000174
1035.289552,-0.000059
1035.771755,-0.000038
1036.253958,-0.000217
1036.736161,-0.000299
1037.218364,-0.000238
1037.700567,-0.000181
1038.182770,-0.000119
1038.664973,-0.000020
1039.147175,-0.000072
1039.629378,-0.000142
1040.111581,-0.000011
1040.593784,-0.000041
1041.075987,-0.000169
1041.558190,-0.000118
1042.040393,-0.000111
1042.522595,-0.000125
1043.004798,-0.000151
1043.487001,-0.000257
1043.969204,-0.000170
1044.451407,-0.000017
1044.933610,-0.000072
1045.415813,-0.000163
1045.898015,-0.000221
1046.380218,-0.000169
1046.862421,-0.000008
1047.344624,-0.000009
1047.826827,-0.000075
1048.309030,-0.000093
1048.791233,-0.000077
1049.273436,0.000023
1049.755638,-0.000011
1050.237841,-0.000171
1050.720044,-0.000238
1051.202247,-0.000218
1051.684450,-0.000187
1052.166653,-0.000173
1052.648856,-0.000100
1053.131058,0.000007
1053.613261,0.000037
1054.095464,-0.000052
1054.577667,-0.000182
1055.059870,-0.000236
1055.542073,-0.000240
1056.024276,-0.000149
1056.506479,-0.000173
1056.988681,-0.000369
1057.470884,-0.000227
1057.953087,0.000015
1058.435290,-0.000035
1058.917493,-0.000033
1059.399696,0.000038
1059.881899,0.000009
1060.364101,-0.000032
1060.846304,-0.000053
1061.328507,-0.000104
1061.810710,-0.000169
1062.292913,-0.000046
1062.775116,0.000212
1063.257319,0.000212
1063.739522,-0.000021
1064.221724,-0.000136
1064.703927,-0.000131
1065.186130,-0.000177
1065.668333,-0.000230
1066.150536,-0.000183
1066.632739,-0.000085
1067.114942,0.000019
1067.597144,0.000144
1068.079347,0.000181
1068.561550,0.000042
1069.043753,-0.000088
1069.525956,0.000021
1070.008159,0.000195
1070.490362,0.000185
1070.972564,0.000128
1071.454767,0.000069
1071.936970,-0.000019
1072.419173,0.000033
1072.901376,0.000142
1073.383579,0.000130
1073.865782,0.000060
1074.347985,0.000007
1074.830187,-0.000046
1075.312390,-0.000125
1075.794593,-0.000121
1076.276796,0.000009
1076.758999,-0.000012
1077.241202,-0.000119
1077.723405,0.000020
1078.205607,0.000175
1078.687810,0.000103
1079.170013,-0.000066
1079.652216,-0.000153
1080.134419,-0.000128
1080.616622,-0.000083
1081.098825,0.000091
1081.581028,0.000235
1082.063230,0.000102
1082.545433,-0.000040
1083.027636,-0.000095
1083.509839,-0.000076
1083.992042,0.000057
1084.474245,0.000129
1084.956448,0.000133
1085.438650,0.000124
1085.920853,0.000113
1086.403056,0.000164
1086.885259,0.000172
1087.367462,0.000118
1087.849665,0.000104
1088.331868,0.000052
1088.814071,-0.000057
1089.296273,-0.000047
1089.778476,0.000052
1090.260679,0.000087
1090.742882,0.000130
1091.225085,0.000104
1091.707288,-0.000068
1092.189491,-0.000061
1092.671693,0.000050
1093.153896,-0.000041
1093.636099,-0.000093
1094.118302,0.000033
1094.600505,0.000093
1095.082708,0.000067
1095.564911,0.000126
1096.047114,0.000165
1096.529316,0.000152
1097.011519,0.000195
1097.493722,0.000119
1097.975925,0.000003
1098.458128,0.000057
1098.940331,0.000125
1099.422534,0.000109
1099.904736,0.000034
1100.386939,0.000064
1100.869142,0.000242
1101.351345,0.000297
1101.833548,0.000151
1102.315751,-0.000034
1102.797954,-0.000084
1103.280156,-0.000058
1103.762359,-0.000134
1104.244562,-0.000150
1104.726765,0.000001
1105.208968,0.000065
1105.691171,0.000061
1106.173374,0.000139
1106.655577,0.000114
1107.137779,0.000054
1107.619982,0.000135
1108.102185,0.000148
1108.584388,0.000062
1109.066591,0.000012
1109.548794,0.000001
1110.030997,-0.000026
1110.513199,-0.000054
1110.995402,0.000023
1111.477605,0.000123
1111.959808,0.000085
1112.442011,-0.000020
1112.924214,-0.000048
1113.406417,-0.000046
1113.888620,-0.000090
1114.370822,-0.000072
1114.853025,0.000001
1115.335228,0.000027
1115.817431,0.000010
1116.299634,-0.000043
1116.781837,-0.000114
1117.264040,-0.000141
1117.746242,-0.000067
1118.228445,-0.000008
1118.710648,-0.000046
1119.192851,-0.000022
1119.675054,0.000018
1120.157257,-0.000022
1120.639460,0.000014
1121.121663,0.000130
1121.603865,0.000134
1122.086068,0.000013
1122.568271,-0.000082
1123.050474,-0.000085
1123.532677,-0.000022
1124.014880,0.000006
1124.497083,-0.000055
1124.979285,-0.000073
1125.461488,-0.000027
1125.943691,-0.000055
1126.425894,-0.000040
1126.908097,0.000053
1127.390300,0.000030
1127.872503,-0.000033
1128.354706,-0.000004
1128.836908,0.000063
1129.319111,0.000037
1129.801314,-0.000062
1130.283517,-0.000071
1130.765720,-0.000070
1131.247923,-0.000117
1131.730126,-0.000129
1132.212328,-0.000044
1132.694531,0.000089
1133.176734,0.000047
1133.658937,-0.000051
1134.141140,-0.000027
1134.623343,-0.000010
1135.105546,0.000005
1135.587748,0.000027
1136.069951,0.000031
1136.552154,0.000021
1137.034357,-0.000012
1137.516560,-0.000021
1137.998763,-0.000037
1138.480966,-0.000070
1138.963169,-0.000021
1139.445371,0.000073
1139.927574,0.000087
1140.409777,0.000038
1140.891980,-0.000011
1141.374183,-0.000002
1141.856386,0.000039
1142.338589,0.000025
1142.820791,-0.000015
1143.302994,-0.000101
1143.785197,-0.000161
1144.267400,-0.000107
1144.749603,-0.000061
1145.231806,-0.000029
1145.714009,-0.000020
1146.196212,-0.000042
1146.678414,-0.000029
1147.160617,-0.000046
1147.642820,-0.000032
1148.125023,0.000059
1148.607226,0.000108
1149.089429,0.000061
1149.571632,0.000004
1150.053834,0.000023
1150.536037,0.000053
1151.018240,0.000025
1151.500443,-0.000058
1151.982646,-0.000103
1152.464849,-0.000061
1152.947052,-0.000090
1153.429255,-0.000199
1153.911457,-0.000158
1154.393660,0.000022
1154.875863,0.000093
1155.358066,0.000071
1155.840269,0.000057
1156.322472,0.000015
1156.804675,-0.000001
1157.286877,-0.000044
1157.769080,-0.000056
1158.251283,0.000051
1158.733486,0.000080
1159.215689,0.000070
1159.697892,0.000039
1160.180095,-0.000067
1160.662298,-0.000061
1161.144500,-0.000042
1161.626703,-0.000065
1162.108906,0.000012
1162.591109,0.000025
1163.073312,-0.000003
1163.555515,0.000070
1164.037718,0.000026
1164.519920,-0.000107
1165.002123,-0.000096
1165.484326,-0.000043
1165.966529,-0.000027
1166.448732,-0.000041
1166.930935,-0.000071
1167.413138,-0.000004
1167.895340,0.000058
1168.377543,0.000022
1168.859746,0.000015
1169.341949,0.000043
1169.824152,0.000036
1170.306355,-0.000004
1170.788558,-0.000011
1171.270761,0.000051
1171.752963,0.000053
1172.235166,0.000021
1172.717369,0.000104
1173.199572,0.000129
1173.681775,0.000006
1174.163978,-0.000001
1174.646181,0.000079
1175.128383,-0.000022
1175.610586,-0.000174
1176.092789,-0.000165
1176.574992,-0.000106
1177.057195,-0.000042
1177.539398,0.000053
1178.021601,0.000129
1178.503804,0.000170
1178.986006,0.000088
1179.468209,-0.000035
1179.950412,-0.000054
1180.432615,-0.000069
1180.914818,-0.000084
1181.397021,-0.000060
1181.879224,-0.000021
1182.361426,0.000056
1182.843629,0.000077
1183.325832,-0.000010
1183.808035,-0.000021
1184.290238,0.000074
1184.772441,0.000085
1185.254644,0.000065
1185.736847,0.000032
1186.219049,-0.000041
1186.701252,-0.000032
1187.183455,-0.000092
1187.665658,-0.000225
1188.147861,-0.000190
1188.630064,-0.000136
1189.112267,-0.000142
1189.594469,-0.000075
1190.076672,-0.000038
1190.558875,-0.000025
1191.041078,0.000050
1191.523281,-0.000018
1192.005484,-0.000078
1192.487687,0.000042
1192.969889,-0.000025
1193.452092,-0.000100
1193.934295,0.000095
1194.416498,0.000125
1194.898701,-0.000017
1195.380904,-0.000017
1195.863107,-0.000009
1196.345310,-0.000092
1196.827512,-0.000101
1197.309715,-0.000021
1197.791918,0.000025
1198.274121,0.000047
1198.756324,0.000006
1199.238527,-0.000053
1199.720730,-0.000028
1200.202932,-0.000046
1200.685135,-0.000101
1201.167338,-0.000137
1201.649541,-0.000135
1202.131744,-0.000030
1202.613947,-0.000007
1203.096150,-0.000072
1203.578353,-0.000039
1204.060555,0.000048
1204.542758,0.000057
1205.024961,-0.000088
1205.507164,-0.000162
1205.989367,-0.000063
1206.471570,-0.000041
1206.953773,-0.000069
1207.435975,-0.000021
1207.918178,0.000030
1208.400381,0.000071
1208.882584,0.000086
1209.364787,0.000052
1209.846990,0.000035
1210.329193,0.000038
1210.811396,0.000050
1211.293598,0.000077
1211.775801,0.000058
1212.258004,0.000071
1212.740207,0.000134
1213.222410,0.000105
1213.704613,0.000043
1214.186816,0.000041
1214.669018,0.000013
1215.151221,-0.000039
1215.633424,0.000016
1216.115627,0.000094
1216.597830,0.000092
1217.080033,0.000098
1217.562236,0.000059
1218.044439,0.000010
1218.526641,0.000071
1219.008844,0.000092
1219.491047,0.000053
1219.973250,0.000088
1220.455453,0.000120
1220.937656,0.000155
1221.419859,0.000287
1221.902061,0.000388
1222.384264,0.000431
1222.866467,0.000456
1223.348670,0.000326
1223.830873,0.000193
1224.313076,0.000260
1224.795279,0.000263
1225.277481,0.000164
1225.759684,0.000211
1226.241887,0.000264
1226.724090,0.000275
1227.206293,0.000377
1227.688496,0.000487
1228.170699,0.000533
1228.652902,0.000478
1229.135104,0.000458
1229.617307,0.000556
1230.099510,0.000564
1230.581713,0.000523
1231.063916,0.000613
1231.546119,0.000780
1232.028322,0.000854
1232.510524,0.000868
1232.992727,0.000982
1233.474930,0.001087
1233.957133,0.001141
1234.439336,0.001210
1234.921539,0.001277
1235.403742,0.001374
1235.885945,0.001461
1236.368147,0.001539
1236.850350,0.001585
1237.332553,0.001613
1237.814756,0.001734
1238.296959,0.001825
1238.779162,0.001833
1239.261365,0.001853
1239.743567,0.001907
1240.225770,0.001980
1240.707973,0.002039
1241.190176,0.002130
1241.672379,0.002247
1242.154582,0.002342
1242.636785,0.002432
1243.118988,0.002528
1243.601190,0.002701
1244.083393,0.002934
1244.565596,0.003080
1245.047799,0.003065
1245.530002,0.003038
1246.012205,0.003119
1246.494408,0.003139
1246.976610,0.003149
1247.458813,0.003296
1247.941016,0.003389
1248.423219,0.003410
1248.905422,0.003535
1249.387625,0.003697
1249.869828,0.003747
1250.352031,0.003714
1250.834233,0.003683
1251.316436,0.003676
1251.798639,0.003733
1252.280842,0.003820
1252.763045,0.003839
1253.245248,0.003760
1253.727451,0.003701
1254.209653,0.003650
1254.691856,0.003475
1255.174059,0.003312
1255.656262,0.003216
1256.138465,0.003077
1256.620668,0.002907
1257.102871,0.002720
1257.585073,0.002626
1258.067276,0.002677
1258.549479,0.002695
1259.031682,0.002626
1259.513885,0.002523
1259.996088,0.002398
1260.478291,0.002380
1260.960494,0.002460
1261.442696,0.002518
1261.924899,0.002710
1262.407102,0.003339
1262.889305,0.004745
1263.371508,0.006251
1263.853711,0.006334
1264.335914,0.005241
1264.818116,0.004194
1265.300319,0.003459
1265.782522,0.003038
1266.264725,0.002849
1266.746928,0.002750
1267.229131,0.002715
1267.711334,0.002765
1268.193537,0.002971
1268.675739,0.003156
1269.157942,0.003248
1269.640145,0.003367
1270.122348,0.003482
1270.604551,0.003617
1271.086754,0.003728
1271.568957,0.003736
1272.051159,0.003775
1272.533362,0.003859
1273.015565,0.003906
1273.497768,0.003950
1273.979971,0.003947
1274.462174,0.003877
1274.944377,0.003808
1275.426580,0.003737
1275.908782,0.003701
1276.390985,0.003694
1276.873188,0.003609
1277.355391,0.003515
1277.837594,0.003485
1278.319797,0.003435
1278.802000,0.003368
1279.284202,0.003295
1279.766405,0.003241
1280.248608,0.003238
1280.730811,0.003117
1281.213014,0.002952
1281.695217,0.002920
1282.177420,0.002806
1282.659622,0.002605
1283.141825,0.002504
1283.624028,0.002433
1284.106231,0.002320
1284.588434,0.002202
1285.070637,0.002118
1285.552840,0.002035
1286.035043,0.001920
1286.517245,0.001776
1286.999448,0.001633
1287.481651,0.001576
1287.963854,0.001487
1288.446057,0.001302
1288.928260,0.001221
1289.410463,0.001206
1289.892665,0.001143
1290.374868,0.001057
1290.857071,0.000952
1291.339274,0.000909
1291.821477,0.000914
1292.303680,0.000856
1292.785883,0.000786
1293.268086,0.000800
1293.750288,0.000744
1294.232491,0.000535
1294.714694,0.000477
1295.196897,0.000547
1295.679100,0.000440
1296.161303,0.000277
1296.643506,0.000259
1297.125708,0.000350
1297.607911,0.000379
1298.090114,0.000248
1298.572317,0.000090
1299.054520,0.000067
1299.536723,0.000189
1300.018926,0.000283
1300.501129,0.000257
1300.983331,0.000154
1301.465534,0.000019
1301.947737,-0.000023
1302.429940,0.000043
1302.912143,0.000121
1303.394346,0.000113
1303.876549,0.000028
1304.358751,-0.000008
1304.840954,-0.000077
1305.323157,-0.000178
1305.805360,-0.000152
1306.287563,-0.000121
1306.769766,-0.000147
1307.251969,-0.000139
1307.734172,-0.000114
1308.216374,-0.000025
1308.698577,0.000100
1309.180780,0.000086
1309.662983,-0.000042
1310.145186,-0.000163
1310.627389,-0.000196
1311.109592,-0.000117
1311.591794,-0.000093
1312.073997,-0.000123
1312.556200,-0.000055
1313.038403,-0.000037
1313.520606,-0.000122
1314.002809,-0.000155
1314.485012,-0.000112
1314.967214,-0.000063
1315.449417,-0.000034
1315.931620,-0.000008
1316.413823,-0.000021
1316.896026,-0.000060
1317.378229,-0.000087
1317.860432,-0.000133
1318.342635,-0.000183
1318.824837,-0.000170
1319.307040,-0.000058
1319.789243,0.000057
1320.271446,0.000064
1320.753649,0.000022
1321.235852,0.000079
1321.718055,0.000157
1322.200257,0.000023
1322.682460,-0.000094
1323.164663,0.000062
1323.646866,0.000185
1324.129069,0.000173
1324.611272,0.000205
1325.093475,0.000193
1325.575678,0.000072
1326.057880,0.000092
1326.540083,0.000292
1327.022286,0.000324
1327.504489,0.000211
1327.986692,0.000272
1328.468895,0.000417
1328.951098,0.000363
1329.433300,0.000132
1329.915503,0.000052
1330.397706,0.000158
1330.879909,0.000179
1331.362112,0.000192
1331.844315,0.000230
1332.326518,0.000177
1332.808721,0.000177
1333.290923,0.000241
1333.773126,0.000286
1334.255329,0.000308
1334.737532,0.000302
1335.219735,0.000375
1335.701938,0.000335
1336.184141,0.000135
1336.666343,0.000154
1337.148546,0.000264
1337.630749,0.000283
1338.112952,0.000321
1338.595155,0.000281
1339.077358,0.000199
1339.559561,0.000161
1340.041764,0.000148
1340.523966,0.000225
1341.006169,0.000293
1341.488372,0.000241
1341.970575,0.000233
1342.452778,0.000301
1342.934981,0.000279
1343.417184,0.000243
1343.899386,0.000213
1344.381589,0.000172
1344.863792,0.000241
1345.345995,0.000243
1345.828198,0.000169
1346.310401,0.000172
1346.792604,0.000147
1347.274806,0.000214
1347.757009,0.000392
1348.239212,0.000398
1348.721415,0.000258
1349.203618,0.000193
1349.685821,0.000240
1350.168024,0.000289
1350.650227,0.000353
1351.132429,0.000385
1351.614632,0.000192
1352.096835,0.000030
