XLabel,Wavenumber
YLabel,Absorbance
FileType,Absorbance
DisplayDirection,20300
PeakDirection,20312
899.790547,-0.002154
900.272750,-0.002000
900.754953,-0.001415
901.237156,-0.000226
901.719359,-0.000276
902.201562,-0.001328
902.683764,-0.000596
903.165967,-0.000079
903.648170,-0.001202
904.130373,-0.000321
904.612576,0.001602
905.094779,0.001432
905.576982,0.000308
906.059184,-0.000950
906.541387,-0.000839
907.023590,0.000390
907.505793,-0.000232
907.987996,-0.001081
908.470199,-0.000496
908.952402,0.000595
909.434605,0.001214
909.916807,-0.000055
910.399010,-0.001190
910.881213,-0.000273
911.363416,0.000902
911.845619,0.001223
912.327822,0.000875
912.810025,0.000909
913.292227,0.001216
913.774430,0.000277
914.256633,-0.000739
914.738836,-0.000282
915.221039,0.000698
915.703242,0.001037
916.185445,0.000531
916.667648,0.000142
917.149850,0.000154
917.632053,-0.000386
918.114256,-0.000701
918.596459,-0.000201
919.078662,0.000374
919.560865,0.001204
920.043068,0.001523
920.525270,0.000571
921.007473,-0.000318
921.489676,-0.000665
921.971879,-0.000973
922.454082,-0.000843
922.936285,-0.000489
923.418488,-0.000661
923.900690,-0.000728
924.382893,-0.000229
924.865096,0.000151
925.347299,0.000134
925.829502,0.000007
926.311705,0.000256
926.793908,0.000742
927.276111,0.000685
927.758313,0.000255
928.240516,0.000125
928.722719,0.000274
929.204922,0.000182
929.687125,-0.000501
930.169328,-0.001006
930.651531,-0.000466
931.133733,0.000180
931.615936,-0.000107
932.098139,-0.000503
932.580342,-0.000244
933.062545,-0.000292
933.544748,-0.000897
934.026951,-0.000582
934.509154,0.000359
934.991356,0.000473
935.473559,-0.000325
935.955762,-0.001240
936.437965,-0.001108
936.920168,-0.000691
937.402371,-0.000776
937.884574,-0.000488
938.366776,-0.000437
938.848979,-0.000546
939.331182,-0.000165
939.813385,0.000177
940.295588,0.000575
940.777791,0.000875
941.259994,0.000726
941.742197,0.000208
942.224399,0.000115
942.706602,0.000315
943.188805,-0.000253
943.671008,-0.000220
944.153211,0.000593
944.635414,0.000691
945.117617,0.000439
945.599819,0.000094
946.082022,-0.000080
946.564225,-0.000030
947.046428,-0.000183
947.528631,-0.000144
948.010834,0.000245
948.493037,0.000238
948.975240,-0.000546
949.457442,-0.000749
949.939645,-0.000193
950.421848,-0.000549
950.904051,-0.001100
951.386254,-0.000691
951.868457,-0.000134
952.350660,0.000163
952.832862,0.000193
953.315065,-0.000166
953.797268,-0.000355
954.279471,-0.000183
954.761674,-0.000172
955.243877,-0.000210
955.726080,-0.000161
956.208282,-0.000350
956.690485,-0.000385
957.172688,0.000076
957.654891,0.000404
958.137094,0.000377
958.619297,0.000328
959.101500,0.000297
959.583703,0.000296
960.065905,0.000294
960.548108,0.000274
961.030311,0.000314
961.512514,0.000264
961.994717,0.000018
962.476920,-0.000295
962.959123,-0.000446
963.441325,-0.000248
963.923528,0.000106
964.405731,0.000222
964.887934,0.000257
965.370137,0.000289
965.852340,0.000034
966.334543,0.000024
966.816746,0.000363
967.298948,0.000301
967.781151,0.000112
968.263354,0.000139
968.745557,0.000230
969.227760,0.000415
969.709963,0.000388
970.192166,0.000056
970.674368,-0.000068
971.156571,0.000014
971.638774,-0.000165
972.120977,-0.000302
972.603180,-0.000081
973.085383,0.000043
973.567586,0.000063
974.049789,0.000077
974.531991,0.000011
975.014194,0.000118
975.496397,0.000184
975.978600,0.000044
976.460803,0.000093
976.943006,0.000326
977.425209,0.000261
977.907411,0.000070
978.389614,0.000341
978.871817,0.000526
979.354020,0.000255
979.836223,0.000199
980.318426,0.000245
980.800629,0.000133
981.282831,0.000206
981.765034,0.000320
982.247237,0.000177
982.729440,0.000033
983.211643,0.000071
983.693846,-0.000062
984.176049,-0.000309
984.658252,-0.000236
985.140454,-0.000095
985.622657,-0.000110
986.104860,0.000022
986.587063,0.000157
987.069266,-0.000019
987.551469,-0.000148
988.033672,0.000054
988.515874,0.000146
988.998077,0.000052
989.480280,0.000206
989.962483,0.000272
990.444686,0.000023
990.926889,-0.000091
991.409092,-0.000114
991.891295,-0.000111
992.373497,0.000042
992.855700,0.000185
993.337903,0.000188
993.820106,0.000024
994.302309,-0.000081
994.784512,-0.000054
995.266715,-0.000080
995.748917,-0.000091
996.231120,-0.000157
996.713323,-0.000308
997.195526,-0.000222
997.677729,0.000010
998.159932,0.000066
998.642135,0.000151
999.124338,0.000252
999.606540,0.000044
1000.088743,-0.000215
1000.570946,-0.000309
1001.053149,-0.000254
1001.535352,-0.000074
1002.017555,-0.000042
1002.499758,-0.000067
1002.981960,0.000075
1003.464163,0.000131
1003.946366,-0.000005
1004.428569,-0.000076
1004.910772,-0.000033
1005.392975,-0.000064
1005.875178,-0.000067
1006.357381,0.000054
1006.839583,0.000035
1007.321786,-0.000210
1007.803989,-0.000381
1008.286192,-0.000175
1008.768395,0.000132
1009.250598,0.000166
1009.732801,0.000056
1010.215003,-0.000096
1010.697206,-0.000106
1011.179409,0.000033
1011.661612,0.000027
1012.143815,0.000057
1012.626018,0.000177
1013.108221,0.000144
1013.590423,0.000037
1014.072626,0.000019
1014.554829,0.000042
1015.037032,-0.000033
1015.519235,-0.000060
1016.001438,0.000032
1016.483641,0.000090
1016.965844,0.000081
1017.448046,-0.000001
1017.930249,-0.000044
1018.412452,-0.000017
1018.894655,-0.000010
1019.376858,-0.000009
1019.859061,0.000008
1020.341264,-0.000036
1020.823466,-0.000127
1021.305669,-0.000037
1021.787872,0.000091
1022.270075,0.000094
1022.752278,0.000149
1023.234481,0.000115
1023.716684,0.000006
1024.198887,-0.000001
1024.681089,-0.000048
1025.163292,-0.000106
1025.645495,-0.000025
1026.127698,0.000100
1026.609901,0.000130
1027.092104,0.000150
1027.574307,0.000121
1028.056509,0.000019
1028.538712,0.000124
1029.020915,0.000202
1029.503118,-0.000066
1029.985321,-0.000220
1030.467524,-0.000128
1030.949727,-0.000173
1031.431930,-0.000224
1031.914132,-0.000114
1032.396335,-0.000033
1032.878538,-0.000067
1033.360741,-0.000155
1033.842944,-0.000201
1034.325147,-0.000190
1034.807350,-0.000120
1035.289552,-0.000012
1035.771755,0.000028
1036.253958,0.000008
1036.736161,0.000018
1037.218364,0.000090
1037.700567,0.000136
1038.182770,0.000105
1038.664973,0.000054
1039.147175,0.000014
1039.629378,-0.000037
1040.111581,-0.000124
1040.593784,-0.000107
1041.075987,-0.000061
1041.558190,-0.000130
1042.040393,-0.000082
1042.522595,-0.000010
1043.004798,-0.000022
1043.487001,0.000043
1043.969204,0.000114
1044.451407,0.000148
1044.933610,0.000074
1045.415813,-0.000055
1045.898015,-0.000081
1046.380218,-0.000062
1046.862421,0.000051
1047.344624,0.000133
1047.826827,0.000016
1048.309030,-0.000085
1048.791233,-0.000059
1049.273436,-0.000027
1049.755638,-0.000101
1050.237841,-0.000122
1050.720044,-0.000014
1051.202247,-0.000031
1051.684450,-0.000111
1052.166653,-0.000064
1052.648856,-0.000003
1053.131058,-0.000061
1053.613261,-0.000177
1054.095464,-0.000155
1054.577667,-0.000036
1055.059870,0.000029
1055.542073,0.000099
1056.024276,0.000161
1056.506479,0.000135
1056.988681,0.000069
1057.470884,0.000031
1057.953087,0.000061
1058.435290,0.000079
1058.917493,-0.000013
1059.399696,-0.000044
1059.881899,0.000054
1060.364101,0.000080
1060.846304,0.000058
1061.328507,0.000092
1061.810710,0.000066
1062.292913,-0.000057
1062.775116,-0.000140
1063.257319,-0.000172
1063.739522,-0.000218
1064.221724,-0.000209
1064.703927,-0.000156
1065.186130,-0.000090
1065.668333,0.000004
1066.150536,0.000059
1066.632739,0.000036
1067.114942,-0.000091
1067.597144,-0.000138
1068.079347,-0.000017
1068.561550,0.000052
1069.043753,0.000101
1069.525956,0.000093
1070.008159,-0.000040
1070.490362,-0.000094
1070.972564,-0.000082
1071.454767,0.000003
1071.936970,0.000165
1072.419173,0.000118
1072.901376,-0.000074
1073.383579,-0.000059
1073.865782,0.000050
1074.347985,0.000067
1074.830187,0.000121
1075.312390,0.000154
1075.794593,0.000088
1076.276796,0.000062
1076.758999,0.000111
1077.241202,0.000139
1077.723405,0.000121
1078.205607,0.000128
1078.687810,0.000088
1079.170013,-0.000021
1079.652216,-0.000045
1080.134419,-0.000028
1080.616622,-0.000068
1081.098825,-0.000127
1081.581028,-0.000069
1082.063230,0.000096
1082.545433,0.000086
1083.027636,-0.000075
1083.509839,-0.000093
1083.992042,-0.000047
1084.474245,-0.000064
1084.956448,-0.000018
1085.438650,0.000026
1085.920853,-0.000056
1086.403056,-0.000131
1086.885259,-0.000103
1087.367462,-0.000016
1087.849665,0.000041
1088.331868,0.000027
1088.814071,-0.000004
1089.296273,0.000015
1089.778476,0.000060
1090.260679,0.000031
1090.742882,0.000006
1091.225085,0.000044
1091.707288,0.000061
1092.189491,0.000102
1092.671693,0.000136
1093.153896,0.000161
1093.636099,0.000216
1094.118302,0.000199
1094.600505,0.000152
1095.082708,0.000109
1095.564911,0.000076
1096.047114,0.000052
1096.529316,-0.000002
1097.011519,0.000092
1097.493722,0.000191
1097.975925,0.000032
1098.458128,-0.000070
1098.940331,-0.000034
1099.422534,-0.000111
1099.904736,-0.000139
1100.386939,0.000014
1100.869142,0.000075
1101.351345,-0.000046
1101.833548,-0.000109
1102.315751,-0.000057
1102.797954,-0.000002
1103.280156,0.000004
1103.762359,-0.000034
1104.244562,0.000018
1104.726765,0.000108
1105.208968,0.000015
1105.691171,-0.000121
1106.173374,-0.000166
1106.655577,-0.000183
1107.137779,-0.000123
1107.619982,-0.000032
1108.102185,0.000009
1108.584388,-0.000017
1109.066591,-0.000132
1109.548794,-0.000199
1110.030997,-0.000118
1110.513199,-0.000036
1110.995402,-0.000015
1111.477605,-0.000008
1111.959808,-0.000094
1112.442011,-0.000141
1112.924214,-0.000015
1113.406417,0.000018
1113.888620,0.000028
1114.370822,0.000138
1114.853025,0.000122
1115.335228,0.000048
1115.817431,0.000012
1116.299634,0.000026
1116.781837,0.000081
1117.264040,0.000097
1117.746242,0.000121
1118.228445,0.000084
1118.710648,-0.000010
1119.192851,-0.000013
1119.675054,0.000032
1120.157257,0.000024
1120.639460,-0.000086
1121.121663,-0.000143
1121.603865,-0.000039
1122.086068,0.000001
1122.568271,-0.000068
1123.050474,-0.000019
1123.532677,0.000157
1124.014880,0.000173
1124.497083,-0.000017
1124.979285,-0.000077
1125.461488,0.000032
1125.943691,0.000040
1126.425894,-0.000046
1126.908097,-0.000030
1127.390300,0.000028
1127.872503,-0.000013
1128.354706,-0.000005
1128.836908,0.000071
1129.319111,0.000051
1129.801314,0.000057
1130.283517,0.000104
1130.765720,0.000070
1131.247923,0.000003
1131.730126,-0.000005
1132.212328,0.000057
1132.694531,0.000043
1133.176734,0.000029
1133.658937,0.000104
1134.141140,0.000067
1134.623343,0.000006
1135.105546,-0.000005
1135.587748,-0.000069
1136.069951,-0.000045
1136.552154,0.000025
1137.034357,-0.000022
1137.516560,-0.000037
1137.998763,0.000031
1138.480966,0.000038
1138.963169,-0.000005
1139.445371,-0.000032
1139.927574,-0.000029
1140.409777,-0.000014
1140.891980,-0.000070
1141.374183,-0.000101
1141.856386,-0.000015
1142.338589,0.000007
1142.820791,-0.000052
1143.302994,-0.000097
1143.785197,-0.000145
1144.267400,-0.000162
1144.749603,-0.000122
1145.231806,-0.000039
1145.714009,0.000033
1146.196212,0.000074
1146.678414,0.000050
1147.160617,-0.000101
1147.642820,-0.000176
1148.125023,-0.000122
1148.607226,-0.000091
1149.089429,-0.000012
1149.571632,0.000037
1150.053834,-0.000061
1150.536037,-0.000168
1151.018240,-0.000155
1151.500443,-0.000050
1151.982646,-0.000029
1152.464849,-0.000081
1152.947052,-0.000067
1153.429255,-0.000042
1153.911457,-0.000026
1154.393660,-0.000004
1154.875863,-0.000002
1155.358066,0.000006
1155.840269,-0.000024
1156.322472,-0.000070
1156.804675,-0.000037
1157.286877,0.000023
1157.769080,0.000046
1158.251283,0.000049
1158.733486,0.000029
1159.215689,-0.000045
1159.697892,-0.000102
1160.180095,-0.000079
1160.662298,-0.000088
1161.144500,-0.000069
1161.626703,0.000001
1162.108906,-0.000061
1162.591109,-0.000132
1163.073312,-0.000110
1163.555515,-0.000113
1164.037718,-0.000111
1164.519920,-0.000086
1165.002123,-0.000096
1165.484326,-0.000120
1165.966529,-0.000112
1166.448732,-0.000097
1166.930935,-0.000071
1167.413138,-0.000030
1167.895340,-0.000065
1168.377543,-0.000137
1168.859746,-0.000193
1169.341949,-0.000235
1169.824152,-0.000208
1170.306355,-0.000150
1170.788558,-0.000120
1171.270761,-0.000157
1171.752963,-0.000235
1172.235166,-0.000176
1172.717369,-0.000046
1173.199572,-0.000027
1173.681775,-0.000094
1174.163978,-0.000125
1174.646181,0.000001
1175.128383,0.000114
1175.610586,0.000032
1176.092789,-0.000049
1176.574992,-0.000012
1177.057195,0.000043
1177.539398,0.000002
1178.021601,-0.000128
1178.503804,-0.000142
1178.986006,-0.000027
1179.468209,0.000002
1179.950412,-0.000042
1180.432615,-0.000049
1180.914818,-0.000010
1181.397021,0.000041
1181.879224,-0.000054
1182.361426,-0.000226
1182.843629,-0.000221
1183.325832,-0.000162
1183.808035,-0.000141
1184.290238,-0.000085
1184.772441,-0.000076
1185.254644,-0.000088
1185.736847,-0.000060
1186.219049,-0.000032
1186.701252,-0.000042
1187.183455,-0.000140
1187.665658,-0.000239
1188.147861,-0.000204
1188.630064,-0.000064
1189.112267,0.000010
1189.594469,-0.000073
1190.076672,-0.000150
1190.558875,-0.000144
1191.041078,-0.000147
1191.523281,-0.000137
1192.005484,-0.000121
1192.487687,-0.000103
1192.969889,-0.000076
1193.452092,-0.000112
1193.934295,-0.000149
1194.416498,-0.000130
1194.898701,-0.000096
1195.380904,-0.000056
1195.863107,-0.000052
1196.345310,-0.000054
1196.827512,-0.000007
1197.309715,0.000020
1197.791918,-0.000026
1198.274121,-0.000121
1198.756324,-0.000150
1199.238527,-0.000108
1199.720730,-0.000140
1200.202932,-0.000158
1200.685135,-0.000077
1201.167338,-0.000049
1201.649541,-0.000123
1202.131744,-0.000239
1202.613947,-0.000275
1203.096150,-0.000183
1203.578353,-0.000121
1204.060555,-0.000153
1204.542758,-0.000200
1205.024961,-0.000201
1205.507164,-0.000146
1205.989367,-0.000079
1206.471570,-0.000048
1206.953773,-0.000100
1207.435975,-0.000162
1207.918178,-0.000149
1208.400381,-0.000155
1208.882584,-0.000177
1209.364787,-0.000121
1209.846990,-0.000071
1210.329193,-0.000090
1210.811396,-0.000116
1211.293598,-0.000104
1211.775801,-0.000074
1212.258004,-0.000111
1212.740207,-0.000157
1213.222410,-0.000104
1213.704613,-0.000055
1214.186816,-0.000021
1214.669018,0.000005
1215.151221,-0.000111
1215.633424,-0.000217
1216.115627,-0.000148
1216.597830,-0.000075
1217.080033,-0.000055
1217.562236,-0.000036
1218.044439,-0.000036
1218.526641,-0.000066
1219.008844,-0.000111
1219.491047,-0.000111
1219.973250,-0.000055
1220.455453,0.000027
1220.937656,0.000045
1221.419859,-0.000057
1221.902061,-0.000145
1222.384264,-0.000156
1222.866467,-0.000114
1223.348670,-0.000079
1223.830873,-0.000121
1224.313076,-0.000136
1224.795279,-0.000129
1225.277481,-0.000190
1225.759684,-0.000191
1226.241887,-0.000108
1226.724090,-0.000089
1227.206293,-0.000111
1227.688496,-0.000070
1228.170699,-0.000037
1228.652902,-0.000060
1229.135104,-0.000092
1229.617307,-0.000113
1230.099510,-0.000138
1230.581713,-0.000195
1231.063916,-0.000204
1231.546119,-0.000155
1232.028322,-0.000150
1232.510524,-0.000127
1232.992727,-0.000119
1233.474930,-0.000171
1233.957133,-0.000162
1234.439336,-0.000115
1234.921539,-0.000050
1235.403742,0.000010
1235.885945,0.000013
1236.368147,0.000009
1236.850350,-0.000040
1237.332553,-0.000050
1237.814756,0.000016
1238.296959,-0.000049
1238.779162,-0.000077
1239.261365,0.000059
1239.743567,0.000070
1240.225770,0.000009
1240.707973,0.000005
1241.190176,-0.000059
1241.672379,-0.000118
1242.154582,-0.000073
1242.636785,0.000004
1243.118988,0.000032
1243.601190,0.000035
1244.083393,-0.000013
1244.565596,-0.000130
1245.047799,-0.000132
1245.530002,0.000002
1246.012205,0.000073
1246.494408,0.000043
1246.976610,0.000027
1247.458813,0.000034
1247.941016,-0.000041
1248.423219,-0.000123
1248.905422,-0.000135
1249.387625,-0.000096
1249.869828,-0.000066
1250.352031,-0.000114
1250.834233,-0.000102
1251.316436,-0.000044
1251.798639,-0.000050
1252.280842,-0.000042
1252.763045,-0.000052
1253.245248,-0.000089
1253.727451,-0.000142
1254.209653,-0.000153
1254.691856,-0.000072
1255.174059,-0.000047
1255.656262,-0.000049
1256.138465,-0.000030
1256.620668,-0.000033
1257.102871,-0.000015
1257.585073,-0.000025
1258.067276,-0.000048
1258.549479,-0.000021
1259.031682,0.000005
1259.513885,-0.000061
1259.996088,-0.000149
1260.478291,-0.000131
1260.960494,-0.000112
1261.442696,-0.000119
1261.924899,-0.000095
1262.407102,-0.000103
1262.889305,-0.000108
1263.371508,-0.000082
1263.853711,-0.000065
1264.335914,-0.000064
1264.818116,-0.000057
1265.300319,-0.000039
1265.782522,-0.000080
1266.264725,-0.000118
1266.746928,-0.000111
1267.229131,-0.000118
1267.711334,-0.000112
1268.193537,-0.000140
1268.675739,-0.000186
1269.157942,-0.000157
1269.640145,-0.000129
1270.122348,-0.000151
1270.604551,-0.000117
1271.086754,-0.000049
1271.568957,-0.000064
1272.051159,-0.000089
1272.533362,-0.000035
1273.015565,0.000085
1273.497768,0.000207
1273.979971,0.000174
1274.462174,0.000039
1274.944377,-0.000028
1275.426580,-0.000032
1275.908782,0.000007
1276.390985,0.000049
1276.873188,0.000053
1277.355391,0.000051
1277.837594,0.000024
1278.319797,-0.000027
1278.802000,-0.000039
1279.284202,0.000032
1279.766405,0.000069
1280.248608,-0.000019
1280.730811,-0.000042
1281.213014,-0.000004
1281.695217,-0.000088
1282.177420,-0.000142
1282.659622,-0.000075
1283.141825,-0.000017
1283.624028,-0.000027
1284.106231,-0.000086
1284.588434,-0.000098
1285.070637,-0.000072
1285.552840,-0.000078
1286.035043,-0.000065
1286.517245,-0.000064
1286.999448,-0.000114
1287.481651,-0.000167
1287.963854,-0.000176
1288.446057,-0.000128
1288.928260,-0.000171
1289.410463,-0.000273
1289.892665,-0.000205
1290.374868,-0.000099
1290.857071,-0.000022
1291.339274,0.000072
1291.821477,0.000041
1292.303680,-0.000066
1292.785883,-0.000176
1293.268086,-0.000242
1293.750288,-0.000196
1294.232491,-0.000120
1294.714694,-0.000054
1295.196897,-0.000048
1295.679100,-0.000070
1296.161303,-0.000016
1296.643506,0.000005
1297.125708,0.000015
1297.607911,0.000048
1298.090114,-0.000053
1298.572317,-0.000073
1299.054520,0.000094
1299.536723,0.000178
1300.018926,0.000242
1300.501129,0.000244
1300.983331,0.000120
1301.465534,0.000143
1301.947737,0.000146
1302.429940,-0.000042
1302.912143,-0.000101
1303.394346,0.000015
1303.876549,0.000069
1304.358751,0.000016
1304.840954,-0.000050
1305.323157,-0.000014
1305.805360,0.000087
1306.287563,0.000015
1306.769766,-0.000141
1307.251969,-0.000082
1307.734172,-0.000014
1308.216374,-0.000099
1308.698577,-0.000079
1309.180780,-0.000002
1309.662983,-0.000082
1310.145186,-0.000197
1310.627389,-0.000197
1311.109592,-0.000137
1311.591794,-0.000075
1312.073997,-0.000009
1312.556200,-0.000029
1313.038403,-0.000112
1313.520606,-0.000147
1314.002809,-0.000177
1314.485012,-0.000129
1314.967214,-0.000092
1315.449417,-0.000193
1315.931620,-0.000244
1316.413823,-0.000296
1316.896026,-0.000350
1317.378229,-0.000250
1317.860432,-0.000145
1318.342635,-0.000109
1318.824837,-0.000052
1319.307040,-0.000006
1319.789243,-0.000065
1320.271446,-0.000133
1320.753649,-0.000122
1321.235852,-0.000154
1321.718055,-0.000224
1322.200257,-0.000259
1322.682460,-0.000239
1323.164663,-0.000169
1323.646866,-0.000106
1324.129069,-0.000079
1324.611272,-0.000099
1325.093475,-0.000177
1325.575678,-0.000200
1326.057880,-0.000083
1326.540083,-0.000035
1327.022286,-0.000083
1327.504489,-0.000039
1327.986692,0.000007
1328.468895,-0.000011
1328.951098,-0.000048
1329.433300,-0.000101
1329.915503,-0.000087
1330.397706,-0.000019
1330.879909,-0.000038
1331.362112,-0.000084
1331.844315,-0.000029
1332.326518,0.000012
1332.808721,-0.000052
1333.290923,-0.000167
1333.773126,-0.000238
1334.255329,-0.000148
1334.737532,-0.000058
1335.219735,-0.000115
1335.701938,-0.000145
1336.184141,-0.000164
1336.666343,-0.000245
1337.148546,-0.000159
1337.630749,-0.000025
1338.112952,-0.000065
1338.595155,-0.000105
1339.077358,-0.000210
1339.559561,-0.000376
1340.041764,-0.000269
1340.523966,-0.000008
1341.006169,0.000126
1341.488372,0.000128
1341.970575,0.000047
1342.452778,-0.000038
1342.934981,-0.000083
1343.417184,-0.000127
1343.899386,-0.000228
1344.381589,-0.000269
1344.863792,-0.000127
1345.345995,-0.000005
1345.828198,-0.000047
1346.310401,-0.000117
1346.792604,-0.000157
1347.274806,-0.000158
