XLabel,Wavenumber
YLabel,Absorbance
FileType,Absorbance
DisplayDirection,20300
PeakDirection,20312
898.826141,0.000144
900.754953,0.001024
902.683764,-0.000038
904.612576,-0.000336
906.541387,0.000122
908.470199,0.000462
910.399010,0.000917
912.327822,0.001145
914.256633,-0.000090
916.185445,-0.000897
918.114256,-0.000194
920.043068,-0.000295
921.971879,-0.000835
923.900690,-0.000175
925.829502,0.000362
927.758313,-0.000286
929.687125,-0.000755
931.615936,0.000009
933.544748,0.000612
935.473559,-0.000369
937.402371,-0.001393
939.331182,-0.000813
941.259994,0.000069
943.188805,0.000086
945.117617,-0.000012
947.046428,0.000167
948.975240,0.000373
950.904051,0.000386
952.832862,-0.000004
954.761674,-0.000326
956.690485,-0.000157
958.619297,0.000074
960.548108,0.000095
962.476920,-0.000164
964.405731,-0.000382
966.334543,-0.000025
968.263354,0.000295
970.192166,0.000146
972.120977,0.000012
974.049789,-0.000073
975.978600,-0.000160
977.907411,-0.000126
979.836223,-0.000081
981.765034,-0.000220
983.693846,-0.000379
985.622657,-0.000148
987.551469,0.000110
989.480280,0.000021
991.409092,0.000020
993.337903,0.000112
995.266715,0.000080
997.195526,0.000068
999.124338,0.000034
1001.053149,-0.000023
1002.981960,0.000040
1004.910772,0.000118
1006.839583,0.000064
1008.768395,-0.000015
1010.697206,-0.000066
1012.626018,-0.000170
1014.554829,-0.000174
1016.483641,-0.000031
1018.412452,0.000022
1020.341264,-0.000038
1022.270075,-0.000059
1024.198887,0.000042
1026.127698,0.000107
1028.056509,-0.000018
1029.985321,-0.000115
1031.914132,-0.000052
1033.842944,-0.000011
1035.771755,-0.000024
1037.700567,-0.000003
1039.629378,0.000042
1041.558190,0.000037
1043.487001,-0.000066
1045.415813,-0.000121
1047.344624,0.000035
1049.273436,0.000184
1051.202247,0.000107
1053.131058,-0.000039
1055.059870,-0.000097
1056.988681,-0.000077
1058.917493,-0.000024
1060.846304,0.000013
1062.775116,-0.000007
1064.703927,-0.000021
1066.632739,0.000041
1068.561550,0.000060
1070.490362,-0.000010
1072.419173,-0.000036
1074.347985,0.000012
1076.276796,0.000075
1078.205607,0.000073
1080.134419,-0.000018
1082.063230,-0.000074
1083.992042,-0.000028
1085.920853,-0.000004
1087.849665,-0.000048
1089.778476,-0.000033
1091.707288,0.000032
1093.636099,0.000035
1095.564911,0.000012
1097.493722,0.000046
1099.422534,0.000101
1101.351345,0.000067
1103.280156,-0.000019
1105.208968,-0.000051
1107.137779,-0.000043
1109.066591,-0.000024
1110.995402,-0.000005
1112.924214,-0.000011
1114.853025,-0.000051
1116.781837,-0.000077
1118.710648,-0.000082
1120.639460,-0.000095
1122.568271,-0.000087
1124.497083,-0.000102
1126.425894,-0.000119
1128.354706,-0.000046
1130.283517,0.000005
1132.212328,-0.000015
1134.141140,-0.000037
1136.069951,-0.000059
1137.998763,-0.000033
1139.927574,0.000033
1141.856386,0.000055
1143.785197,0.000025
1145.714009,-0.000027
1147.642820,-0.000058
1149.571632,-0.000032
1151.500443,-0.000013
1153.429255,-0.000017
1155.358066,0.000011
1157.286877,0.000018
1159.215689,0.000006
1161.144500,0.000030
1163.073312,0.000043
1165.002123,0.000034
1166.930935,-0.000003
1168.859746,-0.000026
1170.788558,-0.000010
1172.717369,-0.000030
1174.646181,-0.000040
1176.574992,-0.000017
1178.503804,-0.000020
1180.432615,-0.000003
1182.361426,0.000011
1184.290238,-0.000025
1186.219049,-0.000029
1188.147861,0.000024
1190.076672,0.000040
1192.005484,0.000044
1193.934295,0.000088
1195.863107,0.000089
1197.791918,0.000057
1199.720730,0.000045
1201.649541,0.000020
1203.578353,0.000016
1205.507164,0.000033
1207.435975,0.000013
1209.364787,-0.000006
1211.293598,0.000011
1213.222410,0.000029
1215.151221,0.000052
1217.080033,0.000111
1219.008844,0.000146
1220.937656,0.000111
1222.866467,0.000082
1224.795279,0.000112
1226.724090,0.000148
1228.652902,0.000180
1230.581713,0.000243
1232.510524,0.000288
1234.439336,0.000311
1236.368147,0.000354
1238.296959,0.000418
1240.225770,0.000497
1242.154582,0.000547
1244.083393,0.000554
1246.012205,0.000577
1247.941016,0.000620
1249.869828,0.000638
1251.798639,0.000647
1253.727451,0.000607
1255.656262,0.000506
1257.585073,0.000401
1259.513885,0.000295
1261.442696,0.000431
1263.371508,0.000720
1265.300319,0.000653
1267.229131,0.000462
1269.157942,0.000499
1271.086754,0.000578
1273.015565,0.000633
1274.944377,0.000712
1276.873188,0.000744
1278.802000,0.000715
1280.730811,0.000716
1282.659622,0.000712
1284.588434,0.000632
1286.517245,0.000539
1288.446057,0.000445
1290.374868,0.000380
1292.303680,0.000358
1294.232491,0.000322
1296.161303,0.000292
1298.090114,0.000247
1300.018926,0.000178
1301.947737,0.000151
1303.876549,0.000142
1305.805360,0.000116
1307.734172,0.000124
1309.662983,0.000142
1311.591794,0.000101
1313.520606,0.000027
1315.449417,-0.000044
1317.378229,-0.000094
1319.307040,-0.000056
1321.235852,0.000001
1323.164663,-0.000011
1325.093475,0.000032
1327.022286,0.000147
1328.951098,0.000165
1330.879909,0.000065
1332.808721,-0.000013
1334.737532,-0.000013
1336.666343,-0.000073
1338.595155,-0.000200
1340.523966,-0.000135
1342.452778,0.000063
1344.381589,0.000149
1346.310401,0.000180
1348.239212,0.000173
1350.168024,0.000118
1352.096835,0.000098
1354.025647,0.000133
1355.954458,0.000182
1357.883270,0.000172
1359.812081,0.000044
1361.740892,-0.000181
1363.669704,-0.000154
1365.598515,0.000083
1367.527327,0.000096
1369.456138,0.000149
1371.384950,0.000207
1373.313761,-0.000063
1375.242573,-0.000115
1377.171384,0.000141
1379.100196,0.000227
1381.029007,0.000288
1382.957819,0.000426
1384.886630,0.000287
1386.815441,0.000004
1388.744253,0.000131
1390.673064,0.000415
1392.601876,0.000230
1394.530687,-0.000096
1396.459499,-0.000059
1398.388310,0.000073
1400.317122,0.000327
1402.245933,0.000537
1404.174745,0.000422
1406.103556,0.000403
1408.032368,0.000550
1409.961179,0.000609
1411.889990,0.000619
1413.818802,0.000661
1415.747613,0.000491
1417.676425,-0.000148
1419.605236,-0.000330
1421.534048,0.000174
1423.462859,0.000314
1425.391671,0.000332
1427.320482,0.000427
1429.249294,0.000278
1431.178105,0.000287
1433.106917,0.000405
1435.035728,-0.000056
1436.964539,-0.000390
1438.893351,0.000175
1440.822162,0.000555
1442.750974,0.000614
1444.679785,0.000601
1446.608597,0.000349
1448.537408,0.000285
1450.466220,0.000465
1452.395031,0.000474
1454.323843,0.000017
1456.252654,-0.000983
1458.181466,-0.000994
1460.110277,0.000115
1462.039089,0.000547
1463.967900,0.000162
1465.896711,0.000162
1467.825523,0.000652
1469.754334,0.000450
1471.683146,-0.000381
1473.611957,-0.000515
1475.540769,-0.000006
1477.469580,0.000456
1479.398392,0.000713
1481.327203,0.000807
1483.256015,0.000905
1485.184826,0.000776
1487.113638,0.000306
1489.042449,-0.000056
1490.971260,0.000239
1492.900072,0.000744
1494.828883,0.000533
1496.757695,0.000067
1498.686506,0.000280
1500.615318,0.000770
1502.544129,0.000936
1504.472941,0.000016
1506.401752,-0.001388
1508.330564,-0.000787
1510.259375,0.000282
1512.188187,0.000693
1514.116998,0.000639
1516.045809,0.000232
1517.974621,0.000038
1519.903432,-0.000277
1521.832244,-0.000550
1523.761055,0.000001
1525.689867,0.000379
1527.618678,0.000644
1529.547490,0.001082
1531.476301,0.000865
1533.405113,0.000426
1535.333924,0.000727
1537.262736,0.000494
1539.191547,-0.000831
1541.120358,-0.001013
1543.049170,-0.000130
1544.977981,0.000607
1546.906793,0.001214
1548.835604,0.001377
1550.764416,0.001352
1552.693227,0.001178
1554.622039,0.000754
1556.550850,-0.000107
1558.479662,-0.001442
1560.408473,-0.000519
1562.337285,0.001099
1564.266096,0.001505
1566.194907,0.001606
1568.123719,0.001419
1570.052530,0.001326
1571.981342,0.001974
1573.910153,0.001972
1575.838965,0.001445
1577.767776,0.002041
1579.696588,0.002908
1581.625399,0.003325
1583.554211,0.003717
1585.483022,0.004183
1587.411834,0.004586
1589.340645,0.004979
1591.269456,0.005371
1593.198268,0.005704
1595.127079,0.006081
1597.055891,0.006463
1598.984702,0.006628
1600.913514,0.006580
1602.842325,0.006498
1604.771137,0.006347
1606.699948,0.005958
1608.628760,0.005458
1610.557571,0.005043
1612.486383,0.004668
1614.415194,0.003842
1616.344005,0.002805
1618.272817,0.003549
1620.201628,0.005135
1622.130440,0.005968
1624.059251,0.006734
1625.988063,0.007482
1627.916874,0.007694
1629.845686,0.007760
1631.774497,0.007423
1633.703309,0.006051
1635.632120,0.004375
1637.560932,0.004098
1639.489743,0.004140
1641.418555,0.003464
1643.347366,0.002523
1645.276177,0.001202
1647.204989,0.000259
1649.133800,0.000531
1651.062612,-0.000126
1652.991423,-0.001518
1654.920235,-0.000418
1656.849046,0.000917
1658.777858,0.001190
1660.706669,0.000930
1662.635481,0.000612
1664.564292,0.000878
1666.493104,0.001029
1668.421915,0.000331
1670.350726,0.000131
1672.279538,0.000598
1674.208349,0.000505
1676.137161,0.000557
1678.065972,0.001048
1679.994784,0.001078
1681.923595,0.000391
1683.852407,-0.000477
1685.781218,0.000054
1687.710030,0.000902
1689.638841,0.000988
1691.567653,0.001106
1693.496464,0.000708
1695.425275,-0.000135
1697.354087,-0.000159
1699.282898,-0.000632
1701.211710,-0.000810
1703.140521,0.000012
1705.069333,0.000274
1706.998144,0.000595
1708.926956,0.001163
1710.855767,0.001295
1712.784579,0.001048
1714.713390,0.000476
1716.642202,-0.000142
1718.571013,0.000027
1720.499824,0.000832
1722.428636,0.001192
1724.357447,0.001157
1726.286259,0.001164
1728.215070,0.000921
1730.143882,0.000600
1732.072693,0.000009
1734.001505,-0.000647
1735.930316,-0.000112
1737.859128,0.000305
1739.787939,0.000145
1741.716751,0.000263
1743.645562,0.000394
1745.574373,0.000313
1747.503185,0.000125
1749.431996,-0.000164
1751.360808,-0.000062
1753.289619,0.000422
1755.218431,0.000511
1757.147242,0.000402
1759.076054,0.000442
1761.004865,0.000282
1762.933677,0.000379
1764.862488,0.000639
1766.791300,0.000438
1768.720111,0.000138
1770.648922,-0.000247
1772.577734,-0.000489
1774.506545,0.000020
1776.435357,0.000541
1778.364168,0.000595
1780.292980,0.000506
1782.221791,0.000530
1784.150603,0.000506
1786.079414,0.000515
1788.008226,0.000583
1789.937037,0.000217
1791.865849,-0.000213
1793.794660,0.000086
1795.723471,0.000485
1797.652283,0.000459
1799.581094,0.000313
1801.509906,0.000392
1803.438717,0.000630
1805.367529,0.000793
1807.296340,0.000826
1809.225152,0.000723
1811.153963,0.000678
1813.082775,0.000846
1815.011586,0.000996
1816.940398,0.001034
1818.869209,0.001071
1820.798021,0.001149
1822.726832,0.001104
1824.655643,0.000983
1826.584455,0.000999
1828.513266,0.000882
1830.442078,0.000888
1832.370889,0.001313
1834.299701,0.001549
1836.228512,0.001553
1838.157324,0.001638
1840.086135,0.001701
1842.014947,0.001501
1843.943758,0.001214
1845.872570,0.001390
1847.801381,0.001729
1849.730192,0.001849
1851.659004,0.001870
1853.587815,0.001850
1855.516627,0.001828
1857.445438,0.001751
1859.374250,0.001642
1861.303061,0.001560
1863.231873,0.001415
1865.160684,0.001112
1867.089496,0.000616
1869.018307,0.000301
1870.947119,0.000439
1872.875930,0.000874
1874.804741,0.001314
1876.733553,0.001122
1878.662364,0.000612
1880.591176,0.000638
1882.519987,0.000926
1884.448799,0.001157
1886.377610,0.001326
1888.306422,0.001336
1890.235233,0.001456
1892.164045,0.001723
1894.092856,0.001900
1896.021668,0.002054
1897.950479,0.002199
1899.879290,0.002254
1901.808102,0.002267
1903.736913,0.002256
1905.665725,0.002187
1907.594536,0.002102
1909.523348,0.002047
1911.452159,0.001997
1913.380971,0.001930
1915.309782,0.001712
1917.238594,0.001367
1919.167405,0.001242
1921.096217,0.001221
1923.025028,0.001098
1924.953839,0.001070
1926.882651,0.001066
1928.811462,0.000942
1930.740274,0.000804
1932.669085,0.000729
1934.597897,0.000630
1936.526708,0.000475
1938.455520,0.000368
1940.384331,0.000222
1942.313143,0.000081
1944.241954,0.000129
1946.170766,0.000191
1948.099577,0.000147
1950.028388,0.000113
1951.957200,0.000119
1953.886011,0.000084
1955.814823,0.000061
1957.743634,0.000113
1959.672446,0.000099
1961.601257,0.000059
1963.530069,0.000036
1965.458880,-0.000032
1967.387692,-0.000042
1969.316503,-0.000019
1971.245315,-0.000033
1973.174126,-0.000009
1975.102938,0.000026
1977.031749,0.000021
1978.960560,0.000022
1980.889372,0.000055
1982.818183,0.000078
1984.746995,0.000058
1986.675806,0.000012
1988.604618,-0.000026
1990.533429,-0.000069
1992.462241,-0.000091
1994.391052,-0.000012
1996.319864,0.000071
1998.248675,0.000074
2000.177487,0.000085
2002.106298,0.000065
2004.035109,0.000015
2005.963921,0.000042
2007.892732,0.000080
2009.821544,0.000065
2011.750355,0.000038
2013.679167,-0.000001
2015.607978,-0.000040
2017.536790,-0.000020
2019.465601,0.000052
2021.394413,0.000080
2023.323224,0.000050
2025.252036,0.000027
2027.180847,0.000020
2029.109658,0.000008
2031.038470,0.000010
2032.967281,0.000071
2034.896093,0.000098
2036.824904,0.000029
2038.753716,0.000006
2040.682527,0.000020
2042.611339,-0.000009
2044.540150,0.000006
2046.468962,0.000067
2048.397773,0.000064
2050.326585,-0.000003
2052.255396,-0.000009
2054.184207,0.000032
2056.113019,0.000042
2058.041830,0.000065
2059.970642,0.000077
2061.899453,0.000048
2063.828265,0.000003
2065.757076,-0.000022
2067.685888,0.000016
2069.614699,0.000060
2071.543511,0.000065
2073.472322,0.000042
2075.401134,0.000017
2077.329945,0.000024
2079.258756,0.000053
2081.187568,0.000076
2083.116379,0.000080
2085.045191,0.000054
2086.974002,0.000041
2088.902814,0.000055
2090.831625,0.000031
2092.760437,0.000002
2094.689248,0.000014
2096.618060,-0.000009
2098.546871,-0.000016
2100.475683,0.000044
2102.404494,0.000079
2104.333305,0.000069
2106.262117,0.000032
2108.190928,-0.000001
2110.119740,0.000018
2112.048551,0.000060
2113.977363,0.000076
2115.906174,0.000071
2117.834986,0.000064
2119.763797,0.000045
2121.692609,0.000042
2123.621420,0.000058
2125.550232,0.000037
2127.479043,0.000005
2129.407854,0.000019
2131.336666,0.000048
2133.265477,0.000059
2135.194289,0.000049
2137.123100,0.000024
2139.051912,0.000021
2140.980723,0.000045
2142.909535,0.000068
2144.838346,0.000080
2146.767158,0.000064
2148.695969,0.000037
2150.624781,0.000041
2152.553592,0.000051
2154.482404,0.000052
2156.411215,0.000057
2158.340026,0.000044
2160.268838,0.000026
2162.197649,0.000023
2164.126461,0.000012
2166.055272,-0.000008
2167.984084,0.000014
2169.912895,0.000079
2171.841707,0.000102
2173.770518,0.000098
2175.699330,0.000098
2177.628141,0.000072
2179.556953,0.000064
2181.485764,0.000075
2183.414575,0.000074
2185.343387,0.000049
2187.272198,0.000016
2189.201010,0.000079
2191.129821,0.000160
2193.058633,0.000131
2194.987444,0.000094
2196.916256,0.000107
2198.845067,0.000103
2200.773879,0.000083
2202.702690,0.000097
2204.631502,0.000137
2206.560313,0.000159
2208.489124,0.000157
2210.417936,0.000150
2212.346747,0.000131
2214.275559,0.000112
2216.204370,0.000118
2218.133182,0.000108
2220.061993,0.000073
2221.990805,0.000062
2223.919616,0.000052
2225.848428,0.000042
2227.777239,0.000089
2229.706051,0.000151
2231.634862,0.000154
2233.563673,0.000141
2235.492485,0.000156
2237.421296,0.000175
2239.350108,0.000218
2241.278919,0.000239
2243.207731,0.000173
2245.136542,0.000144
2247.065354,0.000197
2248.994165,0.000198
2250.922977,0.000136
2252.851788,0.000090
2254.780600,0.000090
2256.709411,0.000090
2258.638222,0.000056
2260.567034,0.000041
2262.495845,0.000046
2264.424657,0.000046
2266.353468,0.000043
2268.282280,0.000026
2270.211091,0.000049
2272.139903,0.000074
2274.068714,0.000009
2275.997526,-0.000031
2277.926337,-0.000011
2279.855149,-0.000011
2281.783960,0.000004
2283.712771,0.000030
2285.641583,0.000040
2287.570394,0.000034
2289.499206,-0.000004
2291.428017,-0.000022
2293.356829,0.000059
2295.285640,0.000091
2297.214452,0.000069
2299.143263,0.000049
2301.072075,0.000065
2303.000886,0.000081
2304.929698,0.000079
2306.858509,0.000070
2308.787320,0.000010
2310.716132,-0.000111
2312.644943,-0.000248
2314.573755,-0.000162
2316.502566,-0.000113
2318.431378,-0.000087
2320.360189,-0.000040
2322.289001,0.000014
2324.217812,0.000091
2326.146624,0.000200
2328.075435,0.000290
2330.004247,0.000183
2331.933058,0.000174
2333.861870,0.000207
2335.790681,0.000179
2337.719492,0.000173
2339.648304,0.000288
2341.577115,0.000492
2343.505927,0.000800
2345.434738,0.001379
2347.363550,0.002179
2349.292361,0.002538
2351.221173,0.002049
2353.149984,0.001243
2355.078796,0.000664
2357.007607,0.000323
2358.936419,0.000152
2360.865230,0.000123
2362.794041,0.000306
2364.722853,0.000035
2366.651664,-0.000220
2368.580476,-0.000329
2370.509287,-0.000286
2372.438099,-0.000194
2374.366910,-0.000072
2376.295722,0.000036
2378.224533,0.000046
2380.153345,-0.000077
2382.082156,-0.000306
2384.010968,-0.000107
2385.939779,0.000014
2387.868590,0.000049
2389.797402,0.000037
2391.726213,0.000014
2393.655025,0.000004
2395.583836,-0.000010
2397.512648,-0.000021
2399.441459,0.000019
2401.370271,0.000022
2403.299082,-0.000007
2405.227894,0.000018
2407.156705,-0.000004
2409.085517,-0.000042
2411.014328,-0.000033
2412.943139,-0.000028
2414.871951,-0.000001
2416.800762,-0.000009
2418.729574,-0.000070
2420.658385,-0.000087
2422.587197,-0.000070
2424.516008,-0.000060
2426.444820,-0.000058
2428.373631,-0.000034
2430.302443,-0.000015
2432.231254,-0.000071
2434.160066,-0.000111
2436.088877,-0.000062
2438.017688,-0.000034
2439.946500,-0.000021
2441.875311,0.000021
2443.804123,0.000007
2445.732934,-0.000059
2447.661746,-0.000098
2449.590557,-0.000105
2451.519369,-0.000089
2453.448180,-0.000060
2455.376992,-0.000051
2457.305803,-0.000048
2459.234615,-0.000057
2461.163426,-0.000107
2463.092237,-0.000099
2465.021049,-0.000039
2466.949860,-0.000056
2468.878672,-0.000095
2470.807483,-0.000087
2472.736295,-0.000066
2474.665106,-0.000070
2476.593918,-0.000085
2478.522729,-0.000099
2480.451541,-0.000131
2482.380352,-0.000098
2484.309164,-0.000020
2486.237975,-0.000044
2488.166786,-0.000098
2490.095598,-0.000079
2492.024409,-0.000067
2493.953221,-0.000082
2495.882032,-0.000070
2497.810844,-0.000051
2499.739655,-0.000073
2501.668467,-0.000117
2503.597278,-0.000122
2505.526090,-0.000082
2507.454901,-0.000030
2509.383713,-0.000013
2511.312524,-0.000053
2513.241336,-0.000046
2515.170147,-0.000009
2517.098958,-0.000082
2519.027770,-0.000140
2520.956581,-0.000106
2522.885393,-0.000099
2524.814204,-0.000106
2526.743016,-0.000091
2528.671827,-0.000072
2530.600639,-0.000048
2532.529450,-0.000040
2534.458262,-0.000053
2536.387073,-0.000079
2538.315885,-0.000092
2540.244696,-0.000061
2542.173507,-0.000039
2544.102319,-0.000049
2546.031130,-0.000035
2547.959942,-0.000015
2549.888753,-0.000007
2551.817565,-0.000020
2553.746376,-0.000052
2555.675188,-0.000062
2557.603999,-0.000058
2559.532811,-0.000037
2561.461622,-0.000002
2563.390434,-0.000032
2565.319245,-0.000114
2567.248056,-0.000128
2569.176868,-0.000065
2571.105679,-0.000041
2573.034491,-0.000065
2574.963302,-0.000074
2576.892114,-0.000053
2578.820925,-0.000032
2580.749737,-0.000067
2582.678548,-0.000124
2584.607360,-0.000135
2586.536171,-0.000087
2588.464983,-0.000005
2590.393794,0.000014
2592.322605,-0.000054
2594.251417,-0.000111
2596.180228,-0.000105
2598.109040,-0.000068
2600.037851,-0.000048
2601.966663,-0.000041
2603.895474,-0.000046
2605.824286,-0.000072
2607.753097,-0.000079
2609.681909,-0.000090
2611.610720,-0.000090
2613.539532,-0.000025
2615.468343,-0.000021
2617.397154,-0.000092
2619.325966,-0.000068
2621.254777,0.000017
2623.183589,0.000054
2625.112400,0.000016
2627.041212,-0.000029
2628.970023,-0.000007
2630.898835,-0.000017
2632.827646,-0.000042
2634.756458,-0.000038
2636.685269,-0.000074
2638.614081,-0.000094
2640.542892,-0.000069
2642.471703,-0.000027
2644.400515,-0.000006
2646.329326,-0.000042
2648.258138,-0.000046
2650.186949,0.000017
2652.115761,0.000043
2654.044572,0.000006
2655.973384,-0.000014
2657.902195,-0.000010
2659.831007,-0.000012
2661.759818,-0.000020
2663.688630,-0.000046
2665.617441,-0.000060
2667.546253,-0.000053
2669.475064,-0.000055
2671.403875,-0.000070
2673.332687,-0.000069
2675.261498,-0.000013
2677.190310,0.000008
2679.119121,-0.000026
2681.047933,-0.000009
2682.976744,-0.000014
2684.905556,-0.000051
2686.834367,-0.000032
2688.763179,-0.000040
2690.691990,-0.000073
2692.620802,-0.000018
2694.549613,0.000033
2696.478424,-0.000020
2698.407236,-0.000051
